!@!!GADDS PLOTSO FILE: Chi integration type
!@!!Title/SampleName: ML_MAPbX3_chem1
!@!!User: NREL
!@!!Site: NREL SERF C211; SN 2510
!@!!Frame: C:\frames\rbelisle\MLProject\081022_MLProject_000_004.gfrm
!@!!Wavelengths    1.54184   1.54056   1.54439
!@!!Frame angles: 2Theta: 28.000 Omega: 5.000 Phi: 0.000 Chi: 90.000
!@!!Integration range: 2Theta: 10.000 to 40.000  Gamma: -130.000 to -109.900
!@!!Integration method: bin normalized
!@!N
!@!SS
!@!M
!@!L 0.0 0.0 0.0 0.0
!@!XDegrees
!@!YCounts
10.00 101.665115
10.02 102.974815
10.04 105.904633
10.06 116.396904
10.08 103.089722
10.10 95.047424
10.12 106.158028
10.14 110.979797
10.16 109.57605
10.18 112.766655
10.20 114.910866
10.22 110.76403
10.24 106.352478
10.26 114.897156
10.28 112.945908
10.30 106.955956
10.32 101.734344
10.34 106.773155
10.36 112.357689
10.38 113.93763
10.40 122.225121
10.42 110.340622
10.44 102.077904
10.46 109.467003
10.48 115.105339
10.50 122.303528
10.52 112.969002
10.54 111.198837
10.56 125.350601
10.58 116.317497
10.60 113.451851
10.62 136.508957
10.64 114.949287
10.66 116.905937
10.68 117.115715
10.70 120.209572
10.72 109.016624
10.74 118.66185
10.76 114.651726
10.78 114.17363
10.80 119.724159
10.82 129.749939
10.84 134.264313
10.86 133.125656
10.88 124.213478
10.90 121.158218
10.92 141.033508
10.94 130.163788
10.96 131.801498
10.98 134.184784
11.00 125.281006
11.02 134.227081
11.04 126.430122
11.06 130.808334
11.08 121.500496
11.10 133.301376
11.12 120.555771
11.14 122.777977
11.16 121.208694
11.18 119.708038
11.20 120.870071
11.22 120.800766
11.24 118.107841
11.26 128.311829
11.28 128.112701
11.30 132.826813
11.32 115.439278
11.34 112.562607
11.36 121.789574
11.38 120.847076
11.40 121.454971
11.42 129.309402
11.44 135.702103
11.46 134.175842
11.48 126.815277
11.50 128.402145
11.52 125.71814
11.54 117.969574
11.56 136.352753
11.58 128.983902
11.60 124.830399
11.62 124.14933
11.64 139.282562
11.66 126.901146
11.68 116.48806
11.70 120.806419
11.72 115.756844
11.74 119.049889
11.76 128.240234
11.78 124.069038
11.80 126.927834
11.82 136.910278
11.84 143.408005
11.86 142.907272
11.88 129.534271
11.90 123.045647
11.92 113.748627
11.94 126.772789
11.96 128.454056
11.98 126.286964
12.00 135.98056
12.02 134.982254
12.04 132.244446
12.06 125.518837
12.08 124.099991
12.10 121.269379
12.12 127.691833
12.14 134.567993
12.16 131.162048
12.18 135.264038
12.20 133.029434
12.22 138.835663
12.24 145.396866
12.26 140.448685
12.28 144.19606
12.30 124.496628
12.32 126.321091
12.34 141.706985
12.36 159.071411
12.38 148.549927
12.40 134.852737
12.42 149.350174
12.44 143.148346
12.46 152.085022
12.48 152.752396
12.50 142.862503
12.52 139.823471
12.54 144.580856
12.56 143.597519
12.58 144.913345
12.60 158.553085
12.62 151.109024
12.64 147.966324
12.66 146.882813
12.68 158.678757
12.70 152.709549
12.72 159.108994
12.74 152.601669
12.76 142.692154
12.78 143.179276
12.80 149.23735
12.82 139.764893
12.84 149.100021
12.86 144.637512
12.88 143.012375
12.90 143.394516
12.92 148.491684
12.94 141.156052
12.96 143.201767
12.98 150.393402
13.00 138.734985
13.02 136.3284
13.04 139.678574
13.06 144.541611
13.08 126.609131
13.10 145.135925
13.12 139.30574
13.14 142.472214
13.16 146.805283
13.18 151.659485
13.20 143.482712
13.22 145.3853
13.24 140.986526
13.26 146.306488
13.28 144.321121
13.30 145.059753
13.32 138.389481
13.34 143.667419
13.36 147.015808
13.38 153.784134
13.40 140.402969
13.42 138.065826
13.44 145.552231
13.46 143.938675
13.48 150.254456
13.50 150.415817
13.52 150.560684
13.54 153.268204
13.56 161.923187
13.58 171.839676
13.60 167.406189
13.62 169.456635
13.64 167.777512
13.66 176.893524
13.68 164.079697
13.70 155.549393
13.72 165.098831
13.74 190.405792
13.76 194.233261
13.78 191.089233
13.80 199.142654
13.82 191.342407
13.84 201.482224
13.86 220.544174
13.88 215.822754
13.90 239.538284
13.92 235.212646
13.94 234.208786
13.96 223.845566
13.98 225.616104
14.00 239.33786
14.02 232.933594
14.04 237.671539
14.06 234.60463
14.08 214.968323
14.10 237.888184
14.12 246.115295
14.14 240.017609
14.16 237.439453
14.18 242.084839
14.20 227.783112
14.22 222.856689
14.24 222.573822
14.26 207.482452
14.28 211.395752
14.30 212.137314
14.32 205.347137
14.34 201.944107
14.36 198.553482
14.38 192.322723
14.40 185.730331
14.42 182.318253
14.44 183.918777
14.46 191.027664
14.48 177.111633
14.50 180.818359
14.52 162.595703
14.54 161.765457
14.56 170.801758
14.58 162.658798
14.60 167.283264
14.62 166.969177
14.64 173.015991
14.66 169.557602
14.68 154.362656
14.70 142.04184
14.72 149.754761
14.74 160.558762
14.76 162.62114
14.78 169.42601
14.80 168.033569
14.82 161.364334
14.84 155.250717
14.86 156.388336
14.88 156.772324
14.90 164.587128
14.92 159.348862
14.94 168.606796
14.96 158.056946
14.98 149.499222
15.00 149.199432
15.02 152.209015
15.04 154.477127
15.06 147.370483
15.08 150.149887
15.10 155.620972
15.12 167.021805
15.14 151.468719
15.16 148.512161
15.18 157.613373
15.20 154.308563
15.22 160.584503
15.24 154.556396
15.26 152.820435
15.28 151.27626
15.30 158.314331
15.32 160.445755
15.34 156.778076
15.36 144.651108
15.38 147.649887
15.40 149.998459
15.42 146.799469
15.44 164.567505
15.46 181.214172
15.48 173.546021
15.50 159.574326
15.52 152.085693
15.54 158.43045
15.56 173.729782
15.58 178.173767
15.60 152.915192
15.62 146.559479
15.64 151.335434
15.66 154.501602
15.68 164.017075
15.70 169.83638
15.72 159.432404
15.74 162.916565
15.76 163.929947
15.78 162.636673
15.80 166.27037
15.82 162.686752
15.84 162.265045
15.86 175.376953
15.88 178.382263
15.90 181.177277
15.92 174.446976
15.94 176.590805
15.96 168.510712
15.98 166.75621
16.00 161.205826
16.02 163.496933
16.04 167.681473
16.06 157.789688
16.08 158.124313
16.10 166.122955
16.12 165.3862
16.14 173.477631
16.16 175.713959
16.18 174.940353
16.20 171.325226
16.22 168.800476
16.24 172.219528
16.26 182.625885
16.28 168.987045
16.30 167.001602
16.32 171.302139
16.34 171.300888
16.36 171.968674
16.38 176.522873
16.40 155.341721
16.42 175.912445
16.44 175.301163
16.46 166.332581
16.48 166.485657
16.50 166.012726
16.52 163.684952
16.54 185.324905
16.56 177.672073
16.58 167.849243
16.60 165.890564
16.62 161.984985
16.64 156.936523
16.66 173.588074
16.68 177.673019
16.70 189.387711
16.72 165.080719
16.74 169.244324
16.76 180.528137
16.78 192.252625
16.80 163.677994
16.82 155.831543
16.84 178.821701
16.86 172.400345
16.88 170.891083
16.90 177.17424
16.92 180.225662
16.94 175.686539
16.96 180.92392
16.98 176.010635
17.00 173.972748
17.02 167.931854
17.04 168.666611
17.06 164.635941
17.08 168.753784
17.10 166.877396
17.12 175.799103
17.14 184.227173
17.16 176.356796
17.18 168.574875
17.20 181.23024
17.22 163.765488
17.24 164.459747
17.26 187.008575
17.28 192.877228
17.30 177.553925
17.32 182.318359
17.34 179.195557
17.36 163.793381
17.38 171.639786
17.40 174.085037
17.42 178.446304
17.44 172.931061
17.46 175.292114
17.48 181.173309
17.50 174.295883
17.52 180.291382
17.54 189.447006
17.56 177.367859
17.58 180.169281
17.60 189.1595
17.62 184.059158
17.64 187.908508
17.66 185.587891
17.68 181.800842
17.70 184.00061
17.72 194.154465
17.74 195.039566
17.76 196.57135
17.78 196.025421
17.80 192.235809
17.82 190.370087
17.84 178.799728
17.86 199.337036
17.88 180.826889
17.90 173.004745
17.92 173.59317
17.94 198.940887
17.96 191.705612
17.98 183.863937
18.00 192.10997
18.02 192.750656
18.04 186.01445
18.06 183.684555
18.08 180.747528
18.10 181.509476
18.12 179.290344
18.14 194.863113
18.16 195.52475
18.18 194.793732
18.20 188.585632
18.22 186.392792
18.24 197.022812
18.26 194.212982
18.28 188.327011
18.30 191.320496
18.32 188.973663
18.34 191.592606
18.36 191.369812
18.38 198.529846
18.40 198.839767
18.42 204.964142
18.44 191.096344
18.46 195.48024
18.48 198.553589
18.50 198.026794
18.52 207.644196
18.54 182.570053
18.56 184.705902
18.58 184.722626
18.60 195.083191
18.62 204.999771
18.64 207.721298
18.66 220.923431
18.68 211.220627
18.70 199.148788
18.72 198.335922
18.74 212.407883
18.76 218.75177
18.78 223.065491
18.80 211.326538
18.82 205.690033
18.84 206.658188
18.86 213.079849
18.88 216.550278
18.90 205.925735
18.92 208.16539
18.94 201.93515
18.96 197.283569
18.98 206.295074
19.00 212.742172
19.02 207.62384
19.04 208.506531
19.06 212.385803
19.08 211.270462
19.10 207.758545
19.12 216.263107
19.14 223.866486
19.16 226.949524
19.18 219.83667
19.20 204.357468
19.22 205.516174
19.24 211.693222
19.26 214.961441
19.28 202.929916
19.30 203.835907
19.32 216.32283
19.34 205.221298
19.36 213.079468
19.38 214.849991
19.40 216.007492
19.42 210.603653
19.44 215.238907
19.46 213.018951
19.48 213.700531
19.50 217.870453
19.52 225.597153
19.54 209.468994
19.56 214.816483
19.58 221.918869
19.60 236.888443
19.62 227.031342
19.64 235.376633
19.66 247.047379
19.68 232.129379
19.70 232.033142
19.72 233.103287
19.74 237.674362
19.76 229.945694
19.78 238.374435
19.80 254.54805
19.82 257.556213
19.84 247.993866
19.86 239.735428
19.88 236.432053
19.90 233.877686
19.92 240.856277
19.94 249.801407
19.96 257.480438
19.98 243.319366
20.00 251.807755
20.02 254.684647
20.04 248.035187
20.06 240.662354
20.08 255.170181
20.10 257.715302
20.12 244.524185
20.14 242.740387
20.16 232.742249
20.18 245.44751
20.20 243.527298
20.22 246.367767
20.24 238.649445
20.26 238.67337
20.28 238.066666
20.30 239.524841
20.32 245.466339
20.34 250.217178
20.36 237.577896
20.38 226.196869
20.40 226.460968
20.42 231.643967
20.44 230.899429
20.46 230.485229
20.48 242.989746
20.50 250.950211
20.52 250.493866
20.54 244.837784
20.56 254.602997
20.58 254.770706
20.60 237.229645
20.62 251.382446
20.64 240.30426
20.66 242.676376
20.68 245.209518
20.70 232.93544
20.72 241.556061
20.74 261.695129
20.76 250.418762
20.78 244.080826
20.80 240.088913
20.82 247.445267
20.84 247.000778
20.86 250.148773
20.88 250.266083
20.90 254.22879
20.92 258.089722
20.94 260.465332
20.96 260.163391
20.98 260.622406
21.00 252.094269
21.02 255.875702
21.04 269.518402
21.06 243.66925
21.08 254.113327
21.10 259.991425
21.12 254.030594
21.14 255.153915
21.16 258.518433
21.18 247.822845
21.20 247.101501
21.22 244.901382
21.24 259.250153
21.26 261.326569
21.28 272.237549
21.30 263.311035
21.32 244.75354
21.34 249.756577
21.36 243.93959
21.38 244.21434
21.40 252.723129
21.42 261.501434
21.44 264.435944
21.46 269.999268
21.48 252.978928
21.50 266.03125
21.52 265.212341
21.54 260.139862
21.56 263.208008
21.58 264.509521
21.60 261.119232
21.62 260.547974
21.64 257.287811
21.66 281.873901
21.68 274.57373
21.70 265.257629
21.72 280.075623
21.74 280.479279
21.76 262.900391
21.78 266.786804
21.80 272.768707
21.82 280.859222
21.84 272.316833
21.86 274.900208
21.88 276.525085
21.90 276.995026
21.92 280.891327
21.94 278.97403
21.96 275.019623
21.98 263.508942
22.00 275.840302
22.02 284.125488
22.04 276.265564
22.06 269.608093
22.08 272.424561
22.10 274.073425
22.12 261.503265
22.14 280.981415
22.16 277.137024
22.18 273.917023
22.20 280.214294
22.22 277.491486
22.24 286.805115
22.26 274.901947
22.28 278.325195
22.30 299.713959
22.32 285.418579
22.34 275.573486
22.36 265.081299
22.38 276.65918
22.40 272.530029
22.42 264.47934
22.44 278.274658
22.46 283.84491
22.48 279.481445
22.50 278.403809
22.52 271.951355
22.54 270.384766
22.56 281.543793
22.58 285.532867
22.60 285.176361
22.62 276.838867
22.64 276.718567
22.66 274.088989
22.68 285.604645
22.70 295.860535
22.72 293.40976
22.74 292.263824
22.76 271.445831
22.78 249.458405
22.80 263.103851
22.82 279.371613
22.84 284.230469
22.86 294.918152
22.88 300.322845
22.90 289.810547
22.92 288.318298
22.94 289.119446
22.96 292.473206
22.98 300.865387
23.00 298.253235
23.02 302.589966
23.04 302.590485
23.06 291.335938
23.08 286.862518
23.10 283.743469
23.12 286.188568
23.14 300.356171
23.16 308.751404
23.18 295.951172
23.20 295.19101
23.22 290.077698
23.24 284.92627
23.26 280.871033
23.28 297.358063
23.30 304.160553
23.32 309.33017
23.34 298.617706
23.36 295.183319
23.38 298.455353
23.40 309.065765
23.42 301.417755
23.44 295.002533
23.46 281.800049
23.48 278.235229
23.50 296.924286
23.52 293.672089
23.54 299.343079
23.56 282.094452
23.58 295.751831
23.60 300.517578
23.62 322.798737
23.64 312.477814
23.66 309.247314
23.68 303.480865
23.70 301.812073
23.72 304.360687
23.74 286.171539
23.76 287.855255
23.78 293.805664
23.80 302.776459
23.82 306.642822
23.84 297.25766
23.86 307.904816
23.88 304.045197
23.90 290.169189
23.92 281.892822
23.94 288.126831
23.96 296.262787
23.98 296.596466
24.00 315.262787
24.02 314.692871
24.04 320.111023
24.06 308.331635
24.08 286.924286
24.10 296.163177
24.12 306.795685
24.14 306.676086
24.16 302.834381
24.18 288.515564
24.20 293.542572
24.22 314.605347
24.24 303.625427
24.26 291.536438
24.28 302.059204
24.30 313.347137
24.32 321.917114
24.34 312.596985
24.36 312.244965
24.38 312.49704
24.40 319.463928
24.42 324.507324
24.44 313.832031
24.46 310.168396
24.48 309.128906
24.50 308.010742
24.52 312.607819
24.54 314.951385
24.56 318.499939
24.58 317.927124
24.60 318.624573
24.62 318.265533
24.64 313.07312
24.66 310.917603
24.68 315.818359
24.70 311.767059
24.72 311.678345
24.74 310.741302
24.76 313.201172
24.78 314.092773
24.80 313.860138
24.82 307.942169
24.84 300.048096
24.86 310.580017
24.88 323.476105
24.90 329.477203
24.92 323.130066
24.94 305.908203
24.96 296.074677
24.98 311.552124
25.00 314.536255
25.02 326.018463
25.04 301.924347
25.06 313.457062
25.08 303.030334
25.10 298.745087
25.12 293.560455
25.14 286.688171
25.16 293.967285
25.18 311.949371
25.20 314.702454
25.22 298.358002
25.24 300.436859
25.26 301.865479
25.28 311.30014
25.30 307.976135
25.32 300.816101
25.34 306.259888
25.36 314.204559
25.38 311.58609
25.40 304.539185
25.42 300.093323
25.44 297.930847
25.46 299.884155
25.48 308.11676
25.50 312.419739
25.52 310.064911
25.54 304.110046
25.56 319.762878
25.58 317.957275
25.60 298.231842
25.62 296.309448
25.64 299.442047
25.66 313.620544
25.68 307.287323
25.70 300.735474
25.72 293.177948
25.74 302.791992
25.76 295.861084
25.78 308.562744
25.80 313.696198
25.82 316.532898
25.84 317.522339
25.86 325.5802
25.88 327.770813
25.90 325.407806
25.92 316.992432
25.94 299.397858
25.96 307.056549
25.98 312.317749
26.00 309.412048
26.02 294.56076
26.04 298.396759
26.06 293.198242
26.08 309.254333
26.10 296.255615
26.12 299.987335
26.14 299.486908
26.16 311.973022
26.18 309.343964
26.20 298.570251
26.22 294.465057
26.24 290.723907
26.26 296.155426
26.28 302.21701
26.30 306.300537
26.32 315.839539
26.34 312.580811
26.36 302.78833
26.38 298.503693
26.40 297.77655
26.42 296.173065
26.44 306.070862
26.46 303.197052
26.48 312.00589
26.50 311.795074
26.52 296.220459
26.54 297.126343
26.56 310.726868
26.58 309.979858
26.60 304.826263
26.62 295.792297
26.64 304.324554
26.66 298.225128
26.68 292.189697
26.70 313.809967
26.72 313.982422
26.74 306.013977
26.76 309.700287
26.78 309.966278
26.80 305.11319
26.82 298.413391
26.84 293.921356
26.86 291.235931
26.88 289.052704
26.90 291.452301
26.92 301.541962
26.94 297.089844
26.96 295.918762
26.98 304.909088
27.00 302.16153
27.02 312.477631
27.04 317.06192
27.06 312.438232
27.08 306.437683
27.10 298.76239
27.12 307.560669
27.14 306.475403
27.16 314.720734
27.18 304.161957
27.20 312.707611
27.22 308.516357
27.24 309.824768
27.26 310.629608
27.28 302.390533
27.30 303.514923
27.32 298.45697
27.34 308.225983
27.36 319.367157
27.38 311.13446
27.40 310.063538
27.42 316.774445
27.44 299.178253
27.46 297.875641
27.48 296.160217
27.50 292.515808
27.52 301.955719
27.54 306.717102
27.56 306.903412
27.58 302.54245
27.60 299.909698
27.62 314.354248
27.64 316.712921
27.66 320.929779
27.68 314.637451
27.70 300.468231
27.72 284.534698
27.74 293.300079
27.76 298.397888
27.78 293.753571
27.80 310.907288
27.82 320.943512
27.84 316.751465
27.86 308.351563
27.88 311.439331
27.90 323.891907
27.92 324.111359
27.94 317.845581
27.96 320.179047
27.98 314.95282
28.00 325.521759
28.02 329.687378
28.04 322.962433
28.06 330.160675
28.08 327.407166
28.10 322.13208
28.12 330.055145
28.14 337.757141
28.16 357.257904
28.18 363.493073
28.20 352.555298
28.22 351.228119
28.24 357.733521
28.26 370.005432
28.28 362.547607
28.30 358.979401
28.32 357.004883
28.34 363.265015
28.36 366.510345
28.38 372.006348
28.40 367.776703
28.42 393.438721
28.44 384.226013
28.46 394.441956
28.48 390.708557
28.50 371.658722
28.52 372.272583
28.54 388.177795
28.56 381.674072
28.58 364.604462
28.60 370.249298
28.62 369.889526
28.64 368.4841
28.66 364.45224
28.68 353.243073
28.70 358.206665
28.72 352.349884
28.74 346.390961
28.76 348.890717
28.78 344.230591
28.80 341.26825
28.82 343.425873
28.84 336.877594
28.86 333.136963
28.88 343.20285
28.90 329.897369
28.92 326.0354
28.94 320.346863
28.96 312.190979
28.98 305.645813
29.00 302.284271
29.02 314.799805
29.04 308.344543
29.06 310.864746
29.08 299.016052
29.10 310.13562
29.12 316.918793
29.14 302.045319
29.16 304.233429
29.18 306.877197
29.20 288.77121
29.22 290.783203
29.24 294.683777
29.26 302.877167
29.28 303.829376
29.30 305.309998
29.32 306.487488
29.34 294.163696
29.36 290.661041
29.38 303.628693
29.40 300.618042
29.42 296.768036
29.44 310.433899
29.46 300.058655
29.48 281.058258
29.50 283.618317
29.52 294.41568
29.54 295.515045
29.56 282.746368
29.58 298.794739
29.60 305.583374
29.62 292.801544
29.64 301.209412
29.66 302.788361
29.68 306.543945
29.70 310.159027
29.72 294.728516
29.74 290.020477
29.76 301.708618
29.78 291.304199
29.80 284.55246
29.82 280.962585
29.84 280.03949
29.86 287.290863
29.88 280.93689
29.90 292.836212
29.92 298.023254
29.94 288.606628
29.96 296.067993
29.98 302.501617
30.00 298.324219
30.02 290.136902
30.04 294.651337
30.06 286.886292
30.08 296.894928
30.10 298.275177
30.12 293.658264
30.14 279.713867
30.16 288.594604
30.18 298.703278
30.20 298.387177
30.22 293.896332
30.24 300.89209
30.26 289.653961
30.28 285.880737
30.30 279.690094
30.32 298.187317
30.34 300.757874
30.36 285.582367
30.38 275.267731
30.40 288.418518
30.42 283.520935
30.44 276.4646
30.46 286.257538
30.48 290.438904
30.50 284.120239
30.52 284.725464
30.54 282.21402
30.56 287.165924
30.58 281.237335
30.60 291.801514
30.62 294.220276
30.64 294.887054
30.66 294.495575
30.68 296.065247
30.70 288.054169
30.72 275.37738
30.74 278.543549
30.76 288.06839
30.78 291.151001
30.80 292.400116
30.82 306.961395
30.84 301.681488
30.86 288.232788
30.88 289.739929
30.90 283.585236
30.92 284.952148
30.94 287.002258
30.96 287.587708
30.98 294.862
31.00 284.597473
31.02 268.840057
31.04 274.949249
31.06 278.960052
31.08 289.308563
31.10 288.344574
31.12 292.549438
31.14 287.937714
31.16 290.656158
31.18 281.883606
31.20 291.225342
31.22 285.023499
31.24 271.610168
31.26 277.424072
31.28 289.346313
31.30 288.267639
31.32 287.789978
31.34 301.862915
31.36 305.165375
31.38 306.555908
31.40 303.923553
31.42 294.989594
31.44 307.709625
31.46 323.656067
31.48 316.767731
31.50 307.238434
31.52 305.763336
31.54 309.941193
31.56 309.232666
31.58 296.309113
31.60 304.717987
31.62 316.845245
31.64 329.090546
31.66 334.032867
31.68 334.55777
31.70 319.873047
31.72 332.872559
31.74 351.196228
31.76 355.477142
