!@!!GADDS PLOTSO FILE: Chi integration type
!@!!Title/SampleName: ML_MAPbX3
!@!!User: NREL
!@!!Site: NREL SERF C211; SN 2510
!@!!Frame: C:\frames\rbelisle\MLProject\081022_MLProject_000_007.gfrm
!@!!Wavelengths    1.54184   1.54056   1.54439
!@!!Frame angles: 2Theta: 28.000 Omega: 5.000 Phi: 0.000 Chi: 90.000
!@!!Integration range: 2Theta: 10.000 to 40.000  Gamma: -135.000 to -110.000
!@!!Integration method: bin normalized
!@!N
!@!SS
!@!M
!@!L 0.0 0.0 0.0 0.0
!@!XDegrees
!@!YCounts
10.00 129.55722
10.02 126.024254
10.04 124.135086
10.06 125.620796
10.08 137.726456
10.10 146.564651
10.12 142.066406
10.14 140.697495
10.16 149.985016
10.18 163.316559
10.20 156.220581
10.22 144.101868
10.24 150.2043
10.26 150.466034
10.28 153.787277
10.30 151.812103
10.32 143.945328
10.34 150.193848
10.36 158.334824
10.38 166.378311
10.40 165.995102
10.42 155.723953
10.44 143.50882
10.46 153.170761
10.48 163.858582
10.50 169.028305
10.52 149.298203
10.54 155.721893
10.56 163.978104
10.58 176.371658
10.60 158.752686
10.62 158.927078
10.64 169.232437
10.66 171.635391
10.68 166.603622
10.70 161.677979
10.72 166.518372
10.74 174.505005
10.76 170.301987
10.78 164.46283
10.80 164.037918
10.82 157.210785
10.84 168.092285
10.86 177.980881
10.88 182.940643
10.90 175.21814
10.92 170.060791
10.94 192.922058
10.96 187.733353
10.98 180.415237
11.00 172.130249
11.02 175.673996
11.04 182.008347
11.06 204.307709
11.08 178.305725
11.10 184.425827
11.12 189.049606
11.14 191.908264
11.16 179.934723
11.18 171.848526
11.20 180.23381
11.22 200.767059
11.24 207.63855
11.26 206.460526
11.28 197.841293
11.30 181.764832
11.32 189.4207
11.34 187.222794
11.36 198.198822
11.38 198.041382
11.40 201.590454
11.42 200.113632
11.44 198.410416
11.46 205.366989
11.48 196.49826
11.50 187.289581
11.52 188.082321
11.54 204.424622
11.56 209.058151
11.58 204.846939
11.60 212.34639
11.62 206.236343
11.64 200.73233
11.66 188.878937
11.68 188.478119
11.70 190.866257
11.72 196.151016
11.74 211.636902
11.76 227.286972
11.78 208.725937
11.80 195.550827
11.82 211.799881
11.84 219.751373
11.86 216.606583
11.88 220.153687
11.90 215.626953
11.92 205.612686
11.94 202.535477
11.96 199.743225
11.98 214.785339
12.00 216.362595
12.02 212.695297
12.04 209.83815
12.06 216.905701
12.08 218.964157
12.10 226.848831
12.12 223.58699
12.14 218.775024
12.16 217.53479
12.18 231.903137
12.20 227.986542
12.22 217.681213
12.24 226.78598
12.26 237.396194
12.28 234.689728
12.30 237.123947
12.32 244.904022
12.34 240.163986
12.36 226.780746
12.38 217.85968
12.40 233.838287
12.42 242.813248
12.44 224.032578
12.46 242.863297
12.48 231.50769
12.50 246.009827
12.52 228.714828
12.54 238.69223
12.56 240.013702
12.58 238.993729
12.60 232.884628
12.62 241.431305
12.64 244.082443
12.66 241.489716
12.68 233.429016
12.70 236.899414
12.72 244.530075
12.74 244.624786
12.76 254.145233
12.78 255.762619
12.80 260.758606
12.82 240.563553
12.84 244.749451
12.86 234.8255
12.88 235.78685
12.90 242.310669
12.92 246.289642
12.94 249.172897
12.96 254.925491
12.98 248.917999
13.00 244.942902
13.02 247.626541
13.04 243.868637
13.06 227.476486
13.08 223.316208
13.10 240.21492
13.12 243.606613
13.14 234.75499
13.16 237.566391
13.18 242.687515
13.20 236.419662
13.22 233.799118
13.24 240.009964
13.26 234.399307
13.28 238.917969
13.30 245.934189
13.32 243.814392
13.34 233.358932
13.36 239.136185
13.38 246.763718
13.40 249.442154
13.42 234.489487
13.44 227.585556
13.46 229.596497
13.48 242.959564
13.50 247.813904
13.52 254.607376
13.54 233.190262
13.56 231.899658
13.58 240.199692
13.60 260.831207
13.62 254.616272
13.64 246.282257
13.66 261.986694
13.68 254.384552
13.70 261.105804
13.72 242.198074
13.74 253.382172
13.76 259.156586
13.78 259.397339
13.80 260.594025
13.82 253.139252
13.84 247.406937
13.86 260.6427
13.88 261.48703
13.90 273.493286
13.92 269.466461
13.94 266.789001
13.96 257.596802
13.98 274.719696
14.00 282.134705
14.02 260.139282
14.04 268.061188
14.06 260.458618
14.08 259.986481
14.10 276.51236
14.12 289.718872
14.14 299.484955
14.16 297.743042
14.18 294.853241
14.20 279.920227
14.22 288.622833
14.24 290.119629
14.26 292.08728
14.28 275.295654
14.30 280.490845
14.32 281.899109
14.34 287.126587
14.36 292.458832
14.38 292.527649
14.40 294.934448
14.42 281.875977
14.44 286.863922
14.46 282.649719
14.48 289.769989
14.50 291.468628
14.52 288.918671
14.54 299.292694
14.56 300.331207
14.58 285.457916
14.60 293.060974
14.62 291.553528
14.64 296.725128
14.66 286.383148
14.68 285.720978
14.70 272.392303
14.72 290.399841
14.74 311.366791
14.76 294.960266
14.78 280.557404
14.80 288.767029
14.82 286.718781
14.84 288.720917
14.86 263.645477
14.88 264.812408
14.90 278.690094
14.92 284.490723
14.94 283.967072
14.96 263.390381
14.98 274.430176
15.00 274.039612
15.02 282.634949
15.04 272.541992
15.06 276.595245
15.08 285.605164
15.10 277.444031
15.12 280.197388
15.14 293.934265
15.16 264.287018
15.18 257.620026
15.20 279.13501
15.22 268.01947
15.24 266.568268
15.26 257.897003
15.28 278.320648
15.30 280.734222
15.32 285.740051
15.34 270.720581
15.36 290.133667
15.38 304.342957
15.40 294.11676
15.42 290.518585
15.44 282.551575
15.46 286.10556
15.48 290.854218
15.50 290.444611
15.52 286.506714
15.54 284.8927
15.56 299.920044
15.58 281.836121
15.60 271.824341
15.62 274.32782
15.64 270.75174
15.66 278.346893
15.68 297.024872
15.70 282.924133
15.72 283.519409
15.74 279.211945
15.76 299.753082
15.78 287.716919
15.80 282.826416
15.82 284.719818
15.84 296.251068
15.86 292.687378
15.88 277.513458
15.90 292.701904
15.92 304.5896
15.94 274.898407
15.96 286.510376
15.98 283.482727
16.00 286.637512
16.02 299.915497
16.04 305.930389
16.06 299.854889
16.08 287.935852
16.10 308.671051
16.12 303.527374
16.14 298.581726
16.16 288.45816
16.18 299.941315
16.20 293.630859
16.22 296.634369
16.24 304.611298
16.26 304.193604
16.28 294.147125
16.30 292.675415
16.32 294.369812
16.34 308.762421
16.36 303.683746
16.38 292.772003
16.40 290.457947
16.42 302.015808
16.44 303.545349
16.46 307.803101
16.48 301.472443
16.50 306.840302
16.52 305.995026
16.54 312.57663
16.56 295.737854
16.58 294.908081
16.60 293.41275
16.62 301.339355
16.64 294.757446
16.66 301.761688
16.68 311.842102
16.70 303.933289
16.72 303.328247
16.74 298.829315
16.76 304.4133
16.78 310.567047
16.80 313.035431
16.82 307.294342
16.84 300.163666
16.86 314.25705
16.88 316.306183
16.90 325.851624
16.92 324.934174
16.94 322.949738
16.96 324.323547
16.98 310.293518
17.00 322.800293
17.02 321.94635
17.04 320.350739
17.06 318.466187
17.08 307.889313
17.10 315.376709
17.12 300.825714
17.14 314.824707
17.16 316.098114
17.18 308.791656
17.20 312.387299
17.22 322.383942
17.24 331.879425
17.26 340.158905
17.28 326.800781
17.30 335.983917
17.32 340.529083
17.34 345.979736
17.36 326.45282
17.38 336.955109
17.40 342.426849
17.42 328.535858
17.44 317.664246
17.46 327.866974
17.48 331.290009
17.50 328.04187
17.52 340.675446
17.54 350.618439
17.56 352.48053
17.58 340.63266
17.60 331.151764
17.62 325.702911
17.64 321.4617
17.66 333.640503
17.68 342.773712
17.70 335.653839
17.72 345.349396
17.74 347.03418
17.76 341.408081
17.78 329.301697
17.80 340.135773
17.82 354.078735
17.84 351.990021
17.86 342.266876
17.88 346.26236
17.90 347.547485
17.92 354.547577
17.94 370.810974
17.96 358.223816
17.98 340.728058
18.00 351.760223
18.02 347.184113
18.04 350.862732
18.06 353.093109
18.08 359.655182
18.10 345.111206
18.12 366.998871
18.14 373.542297
18.16 372.07785
18.18 371.93927
18.20 364.262085
18.22 360.311798
18.24 370.497833
18.26 369.451172
18.28 365.018829
18.30 360.964264
18.32 350.866486
18.34 345.655365
18.36 362.365021
18.38 371.134644
18.40 365.019745
18.42 368.443634
18.44 366.720245
18.46 357.266327
18.48 363.352905
18.50 370.394775
18.52 371.386169
18.54 359.069336
18.56 357.995422
18.58 370.995361
18.60 354.298248
18.62 357.207428
18.64 370.031403
18.66 378.164673
18.68 374.221191
18.70 373.034424
18.72 379.6297
18.74 375.053375
18.76 372.673218
18.78 387.522583
18.80 385.380585
18.82 376.74054
18.84 374.347931
18.86 382.122894
18.88 394.495453
18.90 383.76178
18.92 387.935242
18.94 376.850677
18.96 394.790588
18.98 398.637085
19.00 384.138062
19.02 373.853027
19.04 370.924103
19.06 395.218994
19.08 399.197418
19.10 390.518097
19.12 404.267273
19.14 401.997803
19.16 397.19101
19.18 412.213562
19.20 400.196747
19.22 397.325043
19.24 412.898865
19.26 410.521851
19.28 396.365997
19.30 386.963104
19.32 402.43689
19.34 407.47644
19.36 398.897644
19.38 389.579132
19.40 401.285492
19.42 402.211914
19.44 408.031219
19.46 402.497955
19.48 395.13678
19.50 407.060669
19.52 408.756622
19.54 414.115906
19.56 411.26886
19.58 407.252533
19.60 387.766937
19.62 394.575073
19.64 402.345917
19.66 426.311249
19.68 429.529907
19.70 410.071198
19.72 418.572052
19.74 436.645142
19.76 427.672424
19.78 415.792358
19.80 397.849152
19.82 409.722534
19.84 420.440948
19.86 433.596497
19.88 432.084381
19.90 427.077759
19.92 435.439331
19.94 449.30072
19.96 442.95755
19.98 441.616486
20.00 455.112488
20.02 444.281677
20.04 429.406036
20.06 433.469391
20.08 449.173187
20.10 453.351318
20.12 461.383514
20.14 462.334564
20.16 456.714294
20.18 457.675018
20.20 458.169952
20.22 453.905945
20.24 462.198944
20.26 466.926941
20.28 461.399139
20.30 462.3367
20.32 468.891754
20.34 467.516083
20.36 464.564453
20.38 456.86734
20.40 451.21994
20.42 459.7276
20.44 469.197998
20.46 476.681335
20.48 461.871155
20.50 456.221588
20.52 458.202881
20.54 484.832581
20.56 475.351196
20.58 473.666656
20.60 475.345001
20.62 473.496338
20.64 479.530273
20.66 473.501526
20.68 454.134125
20.70 460.340851
20.72 478.135559
20.74 476.561554
20.76 475.648865
20.78 471.645599
20.80 480.751434
20.82 473.766785
20.84 466.783722
20.86 462.712067
20.88 462.431305
20.90 458.727631
20.92 462.612152
20.94 458.620605
20.96 462.83783
20.98 476.399048
21.00 488.261108
21.02 480.745941
21.04 471.383423
21.06 463.595764
21.08 480.790375
21.10 484.839111
21.12 477.453522
21.14 478.246185
21.16 476.710754
21.18 466.043365
21.20 470.721405
21.22 477.602448
21.24 472.761688
21.26 473.121429
21.28 487.062347
21.30 473.559235
21.32 476.674652
21.34 494.050659
21.36 484.76828
21.38 487.50766
21.40 479.200226
21.42 476.946014
21.44 497.963837
21.46 515.537292
21.48 500.940765
21.50 489.5578
21.52 486.156708
21.54 488.953278
21.56 490.219879
21.58 490.172272
21.60 473.28064
21.62 473.904175
21.64 481.009766
21.66 469.75589
21.68 472.349976
21.70 491.167175
21.72 491.997711
21.74 489.661591
21.76 484.866943
21.78 487.891052
21.80 498.932312
21.82 502.03363
21.84 493.665802
21.86 481.519989
21.88 482.170074
21.90 502.813263
21.92 519.653931
21.94 501.100464
21.96 491.86087
21.98 500.698914
22.00 510.950165
22.02 510.231659
22.04 501.588745
22.06 509.202972
22.08 501.601715
22.10 502.975128
22.12 518.556946
22.14 510.063324
22.16 520.656677
22.18 507.714111
22.20 503.084808
22.22 514.301575
22.24 517.292664
22.26 512.30127
22.28 498.103394
22.30 494.862701
22.32 498.741486
22.34 521.078186
22.36 534.751221
22.38 524.566833
22.40 530.933289
22.42 498.786621
22.44 494.963287
22.46 510.65799
22.48 526.08551
22.50 520.981934
22.52 507.64386
22.54 530.345764
22.56 544.405579
22.58 522.409607
22.60 521.964111
22.62 531.00708
22.64 532.147278
22.66 538.32135
22.68 532.539063
22.70 533.151917
22.72 529.807983
22.74 530.373779
22.76 529.185791
22.78 534.641113
22.80 543.103882
22.82 558.202881
22.84 544.492554
22.86 534.397583
22.88 539.408569
22.90 527.114319
22.92 525.958008
22.94 534.674194
22.96 544.036621
22.98 552.641479
23.00 532.228699
23.02 519.392883
23.04 532.15387
23.06 547.388
23.08 544.577148
23.10 547.460083
23.12 529.800659
23.14 553.887207
23.16 562.294312
23.18 550.778503
23.20 545.443542
23.22 536.242432
23.24 546.984924
23.26 564.675354
23.28 562.415894
23.30 553.290771
23.32 553.991089
23.34 546.625854
23.36 540.643982
23.38 540.911682
23.40 569.147644
23.42 556.587585
23.44 554.198975
23.46 555.752991
23.48 554.786194
23.50 544.652954
23.52 542.817993
23.54 531.971863
23.56 541.871582
23.58 556.030945
23.60 551.072266
23.62 555.115601
23.64 552.201416
23.66 527.214111
23.68 538.32196
23.70 540.07373
23.72 551.964355
23.74 549.85614
23.76 547.157898
23.78 554.218689
23.80 545.178894
23.82 552.440918
23.84 551.470642
23.86 542.928589
23.88 555.728027
23.90 564.764709
23.92 561.806458
23.94 562.031738
23.96 560.287292
23.98 562.456238
24.00 566.539307
24.02 563.364929
24.04 564.043152
24.06 562.290466
24.08 559.94696
24.10 558.774902
24.12 561.760132
24.14 561.452637
24.16 548.961243
24.18 542.640015
24.20 551.291321
24.22 560.92395
24.24 558.527771
24.26 571.741333
24.28 569.116699
24.30 568.802795
24.32 563.314819
24.34 565.177673
24.36 577.032654
24.38 575.252258
24.40 579.898315
24.42 567.488403
24.44 569.447449
24.46 563.833191
24.48 563.039978
24.50 569.415222
24.52 557.21167
24.54 570.733215
24.56 588.8526
24.58 591.7453
24.60 589.918457
24.62 575.304138
24.64 575.871094
24.66 565.641479
24.68 569.470276
24.70 563.723999
24.72 570.794617
24.74 583.923523
24.76 566.252686
24.78 560.927612
24.80 559.085815
24.82 572.329224
24.84 583.220215
24.86 575.779785
24.88 566.532532
24.90 569.778137
24.92 568.179016
24.94 560.325378
24.96 566.464172
24.98 572.580872
25.00 570.392517
25.02 568.575745
25.04 551.975708
25.06 568.695801
25.08 579.102905
25.10 575.597168
25.12 570.59082
25.14 556.112549
25.16 556.916931
25.18 566.431274
25.20 572.751282
25.22 567.425415
25.24 555.872864
25.26 554.336426
25.28 560.374268
25.30 578.302917
25.32 581.022827
25.34 571.919006
25.36 578.386169
25.38 588.399536
25.40 578.042786
25.42 583.047302
25.44 582.297852
25.46 557.038208
25.48 566.182373
25.50 586.548218
25.52 585.664856
25.54 587.579956
25.56 563.876038
25.58 564.76593
25.60 567.618958
25.62 567.439331
25.64 575.760193
25.66 583.731934
25.68 576.293579
25.70 575.527832
25.72 569.027771
25.74 565.585571
25.76 562.967285
25.78 559.469849
25.80 571.226746
25.82 576.365601
25.84 585.028381
25.86 585.217163
25.88 577.019165
25.90 564.765747
25.92 579.663696
25.94 572.532166
25.96 578.382507
25.98 566.904114
26.00 557.992859
26.02 560.594666
26.04 585.75415
26.06 572.018188
26.08 573.07605
26.10 578.229065
26.12 575.726379
26.14 577.489197
26.16 576.973572
26.18 580.20459
26.20 582.343689
26.22 581.113647
26.24 575.391724
26.26 565.840027
26.28 557.690552
26.30 572.146912
26.32 544.53949
26.34 538.156067
26.36 562.570435
26.38 585.516479
26.40 578.244507
26.42 558.861511
26.44 547.602783
26.46 550.202515
26.48 561.547241
26.50 566.2771
26.52 585.830994
26.54 568.742859
26.56 565.427185
26.58 571.461243
26.60 574.839172
26.62 571.800232
26.64 568.616333
26.66 562.216614
26.68 579.153931
26.70 580.553284
26.72 568.769836
26.74 565.899536
26.76 574.149658
26.78 563.519836
26.80 575.262512
26.82 578.723877
26.84 570.761963
26.86 564.57959
26.88 580.524963
26.90 579.614441
26.92 573.72168
26.94 566.733093
26.96 577.446594
26.98 568.73584
27.00 548.656189
27.02 558.940002
27.04 570.106445
27.06 578.173157
27.08 578.351379
27.10 565.583618
27.12 568.872864
27.14 578.895996
27.16 574.406128
27.18 578.955994
27.20 567.626343
27.22 562.680054
27.24 559.749817
27.26 552.288208
27.28 566.294434
27.30 565.711182
27.32 564.630066
27.34 578.411743
27.36 584.313416
27.38 580.129639
27.40 574.644653
27.42 582.911682
27.44 567.904968
27.46 577.157837
27.48 564.113464
27.50 560.289917
27.52 566.11322
27.54 563.703308
27.56 566.211731
27.58 569.952148
27.60 569.211182
27.62 544.037781
27.64 551.747559
27.66 564.23938
27.68 576.123535
27.70 579.679199
27.72 581.348206
27.74 569.085449
27.76 574.30957
27.78 570.051819
27.80 560.701721
27.82 561.800293
27.84 562.735291
27.86 577.476379
27.88 575.196106
27.90 571.210022
27.92 576.703674
27.94 573.542542
27.96 566.308044
27.98 575.713501
28.00 572.246948
28.02 563.349792
28.04 556.123047
28.06 572.094727
28.08 571.39801
28.10 563.074707
28.12 562.28479
28.14 557.507813
28.16 558.225403
28.18 553.609558
28.20 570.708557
28.22 578.940613
28.24 566.081543
28.26 574.180664
28.28 569.19574
28.30 569.560913
28.32 560.677002
28.34 565.773438
28.36 578.142151
28.38 577.012329
28.40 565.021545
28.42 561.661804
28.44 564.627136
28.46 567.143616
28.48 560.291199
28.50 554.888306
28.52 559.382813
28.54 555.448914
28.56 546.339539
28.58 549.575195
28.60 564.091858
28.62 566.674438
28.64 565.841675
28.66 567.199646
28.68 572.277954
28.70 563.262146
28.72 559.075623
28.74 568.848389
28.76 565.828491
28.78 570.354858
28.80 569.809509
28.82 572.053101
28.84 571.498779
28.86 545.725952
28.88 554.320313
28.90 558.105652
28.92 573.56604
28.94 589.855957
28.96 577.524841
28.98 578.083069
29.00 587.074463
29.02 587.23114
29.04 563.685852
29.06 564.715332
29.08 577.734924
29.10 574.885925
29.12 567.37323
29.14 560.492188
29.16 557.261536
29.18 570.136536
29.20 563.453674
29.22 570.248108
29.24 555.626099
29.26 559.019592
29.28 564.14679
29.30 580.431213
29.32 587.243164
29.34 588.798096
29.36 569.810303
29.38 553.472473
29.40 555.365112
29.42 560.902283
29.44 555.800903
29.46 559.137756
29.48 554.379883
29.50 547.950745
29.52 557.718872
29.54 552.086792
29.56 559.276733
29.58 560.617737
29.60 551.553589
29.62 534.489075
29.64 520.491638
29.66 526.02417
29.68 538.699036
29.70 554.739197
29.72 532.506042
29.74 525.240234
29.76 542.633728
29.78 540.969543
29.80 538.447937
29.82 533.489075
29.84 537.8974
29.86 533.534729
29.88 527.425964
29.90 522.72467
29.92 522.28363
29.94 512.283997
29.96 511.921936
29.98 527.437866
30.00 526.207275
30.02 518.309814
30.04 509.93692
30.06 530.870789
30.08 529.922668
30.10 526.08429
30.12 526.469543
30.14 517.531067
30.16 522.089661
30.18 524.62262
30.20 526.309265
30.22 521.462341
30.24 516.988464
30.26 515.481934
30.28 524.069946
30.30 529.441895
30.32 526.865356
30.34 518.001892
30.36 526.418396
30.38 521.52594
30.40 510.7771
30.42 515.001892
30.44 516.061279
30.46 526.68988
30.48 530.216736
30.50 521.238403
30.52 513.24353
30.54 520.061523
30.56 531.326904
30.58 522.318787
30.60 505.4086
30.62 506.886719
30.64 520.738953
30.66 515.111023
30.68 497.520508
30.70 514.633728
30.72 513.773621
30.74 508.562317
30.76 508.405762
30.78 510.677612
30.80 511.265106
30.82 517.295166
30.84 507.187805
30.86 509.50174
30.88 507.942474
30.90 511.671783
30.92 502.767975
30.94 503.902985
30.96 502.870117
30.98 506.897034
31.00 503.923523
31.02 498.79361
31.04 489.761597
31.06 490.95932
31.08 472.046173
31.10 478.633881
31.12 495.804138
31.14 494.559265
31.16 498.386505
31.18 493.358948
31.20 491.052521
31.22 489.408051
31.24 496.933929
31.26 481.27417
31.28 493.301971
31.30 485.908203
31.32 482.241211
31.34 474.750427
31.36 477.703033
31.38 487.065552
31.40 472.516632
31.42 475.359283
31.44 473.018036
31.46 490.027008
31.48 483.750122
31.50 469.401917
31.52 470.106628
31.54 487.140869
31.56 481.855011
31.58 467.850128
31.60 474.665863
31.62 491.604675
31.64 467.057739
31.66 466.142181
31.68 487.046753
31.70 484.702789
31.72 477.976227
31.74 472.931213
31.76 477.131805
31.78 473.7995
31.80 469.46286
