!@!!GADDS PLOTSO FILE: Chi integration type
!@!!Title/SampleName: ML_MAPbX3
!@!!User: NREL
!@!!Site: NREL SERF C211; SN 2510
!@!!Frame: 081022_MLProject_000_018.gfrm
!@!!Wavelengths    1.54184   1.54056   1.54439
!@!!Frame angles: 2Theta: 28.000 Omega: 5.000 Phi: 0.000 Chi: 90.000
!@!!Integration range: 2Theta: 10.000 to 41.100  Gamma: -120.400 to -60.400
!@!!Integration method: bin normalized
!@!N
!@!SS
!@!M
!@!L 0.0 0.0 0.0 0.0
!@!XDegrees
!@!YCounts
10.00 223.222931
10.01 226.058762
10.02 221.967773
10.03 228.60257
10.04 235.558121
10.05 234.317154
10.06 227.493179
10.07 219.796021
10.08 221.492798
10.09 223.967514
10.10 228.573654
10.11 231.991714
10.12 220.934326
10.13 226.465942
10.14 232.721924
10.15 219.158936
10.16 218.552094
10.17 224.505997
10.18 223.624939
10.19 226.24353
10.20 225.679398
10.21 219.77449
10.22 220.553436
10.23 226.367386
10.24 231.48053
10.25 233.043671
10.26 226.426086
10.27 221.208633
10.28 222.726395
10.29 223.924789
10.30 222.239548
10.31 225.710068
10.32 226.926773
10.33 225.082336
10.34 235.062271
10.35 244.392242
10.36 242.515305
10.37 234.087509
10.38 235.571213
10.39 226.815033
10.40 220.649765
10.41 227.678909
10.42 234.179688
10.43 235.919968
10.44 225.624588
10.45 222.737305
10.46 224.552536
10.47 224.823898
10.48 229.209137
10.49 246.19809
10.50 246.928055
10.51 232.67894
10.52 232.957108
10.53 236.699463
10.54 234.742538
10.55 227.476974
10.56 223.038925
10.57 226.170959
10.58 231.012634
10.59 239.491837
10.60 236.14801
10.61 229.815186
10.62 230.038132
10.63 231.595947
10.64 234.644714
10.65 240.447189
10.66 236.436691
10.67 231.280731
10.68 234.379913
10.69 235.47551
10.70 243.487518
10.71 246.505585
10.72 238.086426
10.73 232.425842
10.74 239.180405
10.75 241.391357
10.76 236.244385
10.77 238.295731
10.78 238.056122
10.79 240.740173
10.80 244.573761
10.81 245.409332
10.82 242.467819
10.83 245.991913
10.84 250.822983
10.85 240.88205
10.86 242.493195
10.87 235.844513
10.88 234.485016
10.89 246.760513
10.90 247.322861
10.91 243.49614
10.92 240.552475
10.93 238.257751
10.94 243.269699
10.95 252.197571
10.96 255.462479
10.97 252.796814
10.98 244.866821
10.99 236.000031
11.00 246.059357
11.01 254.193069
11.02 256.072632
11.03 257.355377
11.04 247.621155
11.05 249.5625
11.06 256.462982
11.07 253.725571
11.08 258.278168
11.09 261.330353
11.10 252.577957
11.11 241.066635
11.12 238.870163
11.13 244.242783
11.14 246.782791
11.15 247.937698
11.16 243.182999
11.17 248.514481
11.18 252.409027
11.19 237.121338
11.20 234.915375
11.21 244.098816
11.22 244.463531
11.23 241.259811
11.24 243.31987
11.25 250.185135
11.26 256.056091
11.27 254.602325
11.28 252.470291
11.29 251.573669
11.30 261.893402
11.31 268.914063
11.32 259.969727
11.33 255.098404
11.34 258.318054
11.35 259.720245
11.36 252.911041
11.37 251.179016
11.38 252.499557
11.39 249.266083
11.40 244.798492
11.41 243.677139
11.42 250.711548
11.43 251.246475
11.44 246.797745
11.45 248.999588
11.46 258.522247
11.47 263.762238
11.48 263.615082
11.49 261.663971
11.50 253.065964
11.51 249.411667
11.52 254.325592
11.53 247.651321
11.54 249.63443
11.55 264.741882
11.56 268.689789
11.57 263.627258
11.58 257.967773
11.59 252.678207
11.60 255.082596
11.61 258.681885
11.62 259.509979
11.63 260.128021
11.64 255.535034
11.65 248.212814
11.66 252.216736
11.67 261.560791
11.68 259.776733
11.69 254.289398
11.70 256.212677
11.71 260.330933
11.72 263.258179
11.73 263.226837
11.74 263.491302
11.75 267.157867
11.76 263.30307
11.77 251.772507
11.78 253.265671
11.79 256.248932
11.80 259.363586
11.81 273.75824
11.82 278.577332
11.83 277.154205
11.84 272.189209
11.85 266.254761
11.86 262.854797
11.87 263.473724
11.88 265.627136
11.89 263.875122
11.90 267.024597
11.91 270.054199
11.92 272.568604
11.93 278.294952
11.94 273.925232
11.95 267.459869
11.96 265.914886
11.97 269.250488
11.98 270.823761
11.99 267.028259
12.00 262.317322
12.01 262.030762
12.02 266.960663
12.03 271.465515
12.04 274.172089
12.05 272.144714
12.06 273.701355
12.07 275.963257
12.08 279.012909
12.09 283.346222
12.10 285.233032
12.11 287.920898
12.12 281.821808
12.13 268.774994
12.14 271.38147
12.15 278.825775
12.16 281.608582
12.17 289.607147
12.18 289.016144
12.19 279.129547
12.20 280.446991
12.21 285.454437
12.22 290.628876
12.23 287.71698
12.24 288.873871
12.25 294.343018
12.26 289.307007
12.27 285.936554
12.28 286.165222
12.29 287.156769
12.30 281.492493
12.31 277.667297
12.32 281.146088
12.33 277.847168
12.34 267.692322
12.35 268.079803
12.36 273.762909
12.37 284.148041
12.38 298.249512
12.39 295.932739
12.40 286.385742
12.41 286.320496
12.42 294.247925
12.43 294.138641
12.44 299.966217
12.45 298.353424
12.46 287.989044
12.47 284.545746
12.48 281.457367
12.49 287.351044
12.50 306.084167
12.51 309.539673
12.52 298.811401
12.53 291.944275
12.54 289.287231
12.55 297.55365
12.56 300.766785
12.57 303.705292
12.58 306.86792
12.59 302.725342
12.60 306.954834
12.61 313.702209
12.62 310.932098
12.63 303.756561
12.64 307.582275
12.65 303.211121
12.66 296.179352
12.67 297.5177
12.68 290.495819
12.69 296.824127
12.70 299.480957
12.71 290.552948
12.72 293.711334
12.73 293.493927
12.74 301.038727
12.75 313.65387
12.76 311.268219
12.77 300.448212
12.78 291.671661
12.79 293.886017
12.80 299.028717
12.81 300.480865
12.82 302.592255
12.83 308.849915
12.84 304.035217
12.85 298.001892
12.86 303.85437
12.87 306.507935
12.88 303.039459
12.89 292.54541
12.90 293.185577
12.91 294.055481
12.92 293.565094
12.93 295.500427
12.94 290.503113
12.95 298.258759
12.96 305.111023
12.97 292.446167
12.98 287.811127
12.99 291.355835
13.00 288.368958
13.01 291.264801
13.02 297.464478
13.03 296.0802
13.04 293.054199
13.05 290.233032
13.06 295.721252
13.07 297.091522
13.08 292.407013
13.09 288.013611
13.10 288.004333
13.11 290.480438
13.12 289.703125
13.13 291.160706
13.14 298.06546
13.15 298.973694
13.16 297.507904
13.17 293.114685
13.18 302.045776
13.19 310.208344
13.20 307.675842
13.21 306.261078
13.22 296.23288
13.23 288.677124
13.24 286.402771
13.25 290.748352
13.26 298.303802
13.27 298.41098
13.28 294.754211
13.29 292.650116
13.30 291.697235
13.31 296.089355
13.32 301.034271
13.33 303.64505
13.34 302.450043
13.35 301.429962
13.36 296.657776
13.37 293.168884
13.38 294.527893
13.39 294.747803
13.40 301.670105
13.41 301.312347
13.42 292.640198
13.43 293.199432
13.44 289.573273
13.45 278.7612
13.46 278.133667
13.47 283.1008
13.48 289.695007
13.49 296.338989
13.50 293.859863
13.51 284.713104
13.52 285.097595
13.53 288.281464
13.54 292.4617
13.55 296.624817
13.56 300.733643
13.57 299.151825
13.58 304.560608
13.59 314.661957
13.60 310.448456
13.61 301.490479
13.62 293.915192
13.63 284.841309
13.64 286.043915
13.65 298.809814
13.66 300.312408
13.67 302.321045
13.68 305.756989
13.69 305.082794
13.70 304.315765
13.71 295.373962
13.72 288.604218
13.73 290.079498
13.74 294.648651
13.75 291.779602
13.76 291.03656
13.77 300.248901
13.78 313.966217
13.79 314.189331
13.80 301.077972
13.81 292.277863
13.82 287.069458
13.83 289.053253
13.84 302.333405
13.85 313.177856
13.86 309.788605
13.87 308.819092
13.88 309.790466
13.89 312.001801
13.90 311.717712
13.91 313.132965
13.92 306.442841
13.93 308.617065
13.94 311.705597
13.95 300.261841
13.96 296.826416
13.97 304.530334
13.98 305.094574
13.99 293.519287
14.00 288.411987
14.01 292.797546
14.02 290.214813
14.03 292.040283
14.04 304.288696
14.05 307.285492
14.06 305.995819
14.07 311.521484
14.08 312.015961
14.09 309.387146
14.10 305.394897
14.11 296.144501
14.12 299.521942
14.13 315.679749
14.14 317.050964
14.15 309.676605
14.16 308.634766
14.17 311.252045
14.18 312.686951
14.19 309.601593
14.20 307.994324
14.21 312.363007
14.22 313.180573
14.23 307.108459
14.24 305.115875
14.25 310.301147
14.26 315.91983
14.27 307.641235
14.28 301.223663
14.29 307.972443
14.30 312.607697
14.31 315.788574
14.32 314.132385
14.33 307.87384
14.34 305.50174
14.35 305.665192
14.36 309.561249
14.37 307.996307
14.38 304.242828
14.39 303.719727
14.40 307.133698
14.41 311.964905
14.42 313.609406
14.43 308.516541
14.44 298.746094
14.45 304.966278
14.46 313.053345
14.47 312.635345
14.48 311.516602
14.49 305.223175
14.50 305.334991
14.51 306.449036
14.52 306.072998
14.53 310.871246
14.54 308.930237
14.55 317.556274
14.56 321.631073
14.57 319.43631
14.58 326.697876
14.59 327.422668
14.60 322.953918
14.61 321.523621
14.62 329.094055
14.63 335.039124
14.64 327.647278
14.65 317.265961
14.66 315.03067
14.67 317.921967
14.68 326.460236
14.69 332.999878
14.70 324.380219
14.71 321.4776
14.72 332.369049
14.73 347.588165
14.74 354.538361
14.75 347.838989
14.76 346.475159
14.77 342.512421
14.78 333.403351
14.79 333.551422
14.80 337.158661
14.81 343.422913
14.82 352.179626
14.83 352.123444
14.84 350.60611
14.85 357.159271
14.86 357.726685
14.87 352.087769
14.88 351.711609
14.89 360.250671
14.90 372.474457
14.91 383.771881
14.92 381.886444
14.93 375.058624
14.94 373.029877
14.95 373.431122
14.96 383.004486
14.97 397.527832
14.98 411.821228
14.99 417.077881
15.00 422.192535
15.01 417.494263
15.02 420.812927
15.03 428.134735
15.04 433.167847
15.05 437.965149
15.06 437.28952
15.07 442.586945
15.08 453.084869
15.09 455.328156
15.10 464.809265
15.11 473.141754
15.12 488.496948
15.13 507.523804
15.14 523.070435
15.15 546.419495
15.16 550.511169
15.17 555.506348
15.18 563.367188
15.19 577.450012
15.20 592.767456
15.21 611.014832
15.22 607.628601
15.23 614.367737
15.24 621.585632
15.25 635.659119
15.26 660.12085
15.27 678.715698
15.28 695.407471
15.29 712.059204
15.30 731.018616
15.31 740.255188
15.32 777.736816
15.33 796.701172
15.34 807.472656
15.35 824.086975
15.36 844.750916
15.37 859.212952
15.38 902.734863
15.39 917.978882
15.40 935.667603
15.41 950.237061
15.42 953.234497
15.43 973.179871
15.44 985.667908
15.45 980.196533
15.46 988.538452
15.47 998.527161
15.48 1001.896118
15.49 1013.836426
15.50 1012.408813
15.51 989.833862
15.52 980.440674
15.53 951.521484
15.54 941.900696
15.55 931.630554
15.56 920.295654
15.57 909.622437
15.58 891.760071
15.59 863.668396
15.60 830.03064
15.61 802.407715
15.62 765.876648
15.63 736.67688
15.64 711.410156
15.65 700.524109
15.66 664.625
15.67 642.835754
15.68 614.154053
15.69 601.878235
15.70 577.710205
15.71 564.733704
15.72 551.144348
15.73 541.016846
15.74 533.864502
15.75 520.285889
15.76 498.212097
15.77 484.997864
15.78 474.165253
15.79 470.050598
15.80 475.543457
15.81 464.263733
15.82 449.68042
15.83 444.113312
15.84 443.416138
15.85 437.292023
15.86 437.016144
15.87 443.101257
15.88 438.260162
15.89 422.550873
15.90 415.286041
15.91 418.688812
15.92 414.095154
15.93 415.071259
15.94 417.820709
15.95 415.373474
15.96 408.410492
15.97 407.540283
15.98 405.09549
15.99 395.895508
16.00 382.862854
16.01 386.423859
16.02 393.835144
16.03 390.575104
16.04 388.926483
16.05 390.65036
16.06 383.859436
16.07 383.490417
16.08 389.672485
16.09 390.082275
16.10 388.088379
16.11 381.827271
16.12 378.234344
16.13 377.834229
16.14 386.42807
16.15 381.986328
16.16 368.298126
16.17 355.206512
16.18 348.276459
16.19 359.046661
16.20 371.851532
16.21 374.393066
16.22 376.509155
16.23 371.176636
16.24 362.440521
16.25 357.26825
16.26 345.384705
16.27 337.981995
16.28 345.657867
16.29 353.153076
16.30 352.557556
16.31 359.333252
16.32 362.657196
16.33 352.824524
16.34 351.969818
16.35 354.927734
16.36 351.874359
16.37 347.34906
16.38 352.018982
16.39 347.603088
16.40 341.50708
16.41 346.955139
16.42 342.660645
16.43 340.438171
16.44 345.22818
16.45 348.177826
16.46 348.204956
16.47 351.012665
16.48 353.873657
16.49 356.796875
16.50 362.046783
16.51 356.824432
16.52 350.716492
16.53 342.730927
16.54 340.081482
16.55 345.843964
16.56 353.507294
16.57 359.766663
16.58 362.696289
16.59 355.250946
16.60 348.259216
16.61 345.813293
16.62 349.204681
16.63 352.135376
16.64 348.870453
16.65 347.886414
16.66 347.745178
16.67 343.334412
16.68 349.763824
16.69 361.3367
16.70 364.49588
16.71 359.323822
16.72 354.074036
16.73 353.035797
16.74 352.416534
16.75 350.734558
16.76 344.82962
16.77 338.651794
16.78 334.851776
16.79 339.193481
16.80 344.698425
16.81 346.386383
16.82 348.46402
16.83 349.000641
16.84 339.25708
16.85 336.913574
16.86 344.870911
16.87 347.791168
16.88 348.013763
16.89 350.637329
16.90 344.112091
16.91 336.699554
16.92 334.319641
16.93 339.433624
16.94 344.908661
16.95 345.839142
16.96 346.720184
16.97 344.17218
16.98 339.57608
16.99 345.305969
17.00 350.993561
17.01 352.827301
17.02 361.951355
17.03 362.894104
17.04 360.399506
17.05 361.842194
17.06 361.978699
17.07 363.58905
17.08 366.073639
17.09 362.410858
17.10 357.261719
17.11 350.957855
17.12 350.781097
17.13 357.639496
17.14 364.049164
17.15 360.243073
17.16 352.099884
17.17 348.679718
17.18 354.476074
17.19 351.088013
17.20 354.460449
17.21 360.927795
17.22 360.428467
17.23 350.947327
17.24 344.438507
17.25 351.242706
17.26 358.395996
17.27 354.475403
17.28 353.033752
17.29 352.059052
17.30 351.034821
17.31 352.692322
17.32 354.896423
17.33 358.651459
17.34 355.39444
17.35 359.403442
17.36 368.533356
17.37 367.917236
17.38 363.390167
17.39 359.260468
17.40 354.10434
17.41 355.825867
17.42 356.118622
17.43 352.168976
17.44 360.765747
17.45 366.873779
17.46 363.798798
17.47 355.390289
17.48 349.569824
17.49 351.131714
17.50 362.429382
17.51 374.499695
17.52 372.152222
17.53 362.015991
17.54 358.388245
17.55 356.632416
17.56 350.087372
17.57 349.680725
17.58 357.518921
17.59 362.871399
17.60 368.114197
17.61 364.274994
17.62 357.678131
17.63 360.11203
17.64 356.788116
17.65 364.098969
17.66 370.401733
17.67 367.778717
17.68 360.493195
17.69 353.471832
17.70 356.493591
17.71 363.975433
17.72 367.508759
17.73 366.726807
17.74 368.372467
17.75 365.215332
17.76 360.30899
17.77 367.378021
17.78 369.436523
17.79 370.963165
17.80 377.687103
17.81 378.822449
17.82 376.582977
17.83 376.577423
17.84 376.724731
17.85 372.551239
17.86 369.985199
17.87 368.216614
17.88 366.440277
17.89 368.062439
17.90 367.362854
17.91 366.847717
17.92 368.519501
17.93 372.709869
17.94 370.268158
17.95 363.994843
17.96 368.140106
17.97 376.476166
17.98 385.509064
17.99 389.325134
18.00 386.383087
18.01 386.109955
18.02 383.05014
18.03 380.913879
18.04 381.767609
18.05 386.26062
18.06 390.005646
18.07 394.659027
18.08 386.688812
18.09 379.854034
18.10 375.313477
18.11 378.636902
18.12 382.511383
18.13 386.331909
18.14 389.608582
18.15 394.037445
18.16 391.759308
18.17 385.191772
18.18 387.22287
18.19 388.069122
18.20 389.661469
18.21 388.902496
18.22 381.019165
18.23 380.166931
18.24 388.526093
18.25 397.79303
18.26 398.606659
18.27 389.410919
18.28 386.43689
18.29 390.019775
18.30 392.57785
18.31 399.257416
18.32 403.251617
18.33 406.966858
18.34 407.159271
18.35 405.285858
18.36 403.118103
18.37 396.563782
18.38 401.446228
18.39 403.238647
18.40 394.077393
18.41 395.095825
18.42 395.386566
18.43 392.595581
18.44 386.549316
18.45 388.041779
18.46 395.059357
18.47 395.295197
18.48 393.385956
18.49 394.946045
18.50 395.961517
18.51 395.207855
18.52 397.085144
18.53 396.368469
18.54 397.447998
18.55 401.847992
18.56 405.783813
18.57 411.22699
18.58 403.583374
18.59 393.070007
18.60 389.79834
18.61 389.439209
18.62 396.800201
18.63 408.368469
18.64 410.622284
18.65 408.392395
18.66 406.882782
18.67 405.055725
18.68 408.78067
18.69 418.131775
18.70 420.640289
18.71 413.657318
18.72 404.998138
18.73 401.170685
18.74 400.106537
18.75 394.87735
18.76 392.664581
18.77 396.336914
18.78 404.839966
18.79 411.258209
18.80 409.577637
18.81 409.466583
18.82 410.726929
18.83 405.445892
18.84 403.996552
18.85 409.17099
18.86 412.126556
18.87 410.567627
18.88 410.245117
18.89 411.344818
18.90 415.338989
18.91 420.346924
18.92 422.551819
18.93 414.659821
18.94 415.836212
18.95 426.193634
18.96 428.761505
18.97 426.761261
18.98 419.471344
18.99 416.662445
19.00 412.26947
19.01 417.266418
19.02 422.227722
19.03 423.576813
19.04 427.686737
19.05 427.804993
19.06 425.320068
19.07 424.015686
19.08 429.963654
19.09 428.519501
19.10 425.267517
19.11 425.582458
19.12 425.615234
19.13 416.258301
19.14 414.727509
19.15 420.515594
19.16 420.774841
19.17 418.901794
19.18 421.125275
19.19 433.091095
19.20 433.460022
19.21 427.077789
19.22 423.972412
19.23 425.983368
19.24 432.805756
19.25 437.820587
19.26 428.786774
19.27 432.253326
19.28 440.033356
19.29 436.771606
19.30 431.019073
19.31 428.742157
19.32 428.465179
19.33 429.259613
19.34 423.400513
19.35 419.606689
19.36 428.916809
19.37 439.009003
19.38 441.789124
19.39 439.591064
19.40 438.504028
19.41 436.214111
19.42 435.879608
19.43 434.613403
19.44 423.225891
19.45 422.061768
19.46 430.665833
19.47 434.302795
19.48 437.166595
19.49 443.790344
19.50 449.775696
19.51 460.969513
19.52 455.212006
19.53 445.342133
19.54 444.759247
19.55 443.202515
19.56 439.527466
19.57 441.277771
19.58 447.242859
19.59 451.649139
19.60 452.873474
19.61 455.0383
19.62 453.347107
19.63 457.450684
19.64 450.318298
19.65 444.058319
19.66 442.134949
19.67 443.817596
19.68 445.745178
19.69 446.750061
19.70 449.721497
19.71 450.737122
19.72 451.996979
19.73 455.248596
19.74 458.599609
19.75 454.50769
19.76 450.071381
19.77 450.921539
19.78 452.225006
19.79 454.84433
19.80 453.030853
19.81 450.805969
19.82 449.963928
19.83 448.301788
19.84 449.641815
19.85 457.029144
19.86 460.546539
19.87 453.945374
19.88 445.449982
19.89 446.615784
19.90 446.360504
19.91 452.453003
19.92 456.291351
19.93 458.041046
19.94 457.49054
19.95 461.341156
19.96 474.260742
19.97 468.9422
19.98 462.763
19.99 468.653229
20.00 467.981964
20.01 467.011017
20.02 461.793976
20.03 463.759003
20.04 462.286499
20.05 459.356049
20.06 462.915222
20.07 471.247284
20.08 474.097076
20.09 479.937286
20.10 478.094269
20.11 477.487518
20.12 477.060364
20.13 469.657928
20.14 461.301483
20.15 462.939056
20.16 467.520752
20.17 461.32962
20.18 466.107056
20.19 480.717865
20.20 480.605286
20.21 474.257965
20.22 469.145172
20.23 464.580109
20.24 467.46344
20.25 477.164459
20.26 485.188171
20.27 482.633087
20.28 479.282349
20.29 482.298431
20.30 482.37439
20.31 481.139343
20.32 480.650238
20.33 477.137451
20.34 481.90921
20.35 475.088776
20.36 469.836975
20.37 472.699982
20.38 477.551361
20.39 488.390137
20.40 490.705597
20.41 493.731689
20.42 497.506653
20.43 485.599579
20.44 473.460846
20.45 477.747589
20.46 485.113556
20.47 486.630676
20.48 493.518829
20.49 498.891266
20.50 495.500702
20.51 500.322754
20.52 500.827911
20.53 491.501648
20.54 483.516541
20.55 473.793823
20.56 466.478607
20.57 478.857269
20.58 488.811676
20.59 483.607666
20.60 481.841125
20.61 485.406219
20.62 488.540527
20.63 490.421661
20.64 492.081512
20.65 488.633209
20.66 485.260773
20.67 489.172119
20.68 497.124237
20.69 502.237915
20.70 495.295624
20.71 492.860077
20.72 493.786682
20.73 493.669556
20.74 492.153229
20.75 486.73819
20.76 491.818085
20.77 500.153656
20.78 508.328064
20.79 510.155487
20.80 506.760803
20.81 498.722748
20.82 501.905029
20.83 513.090027
20.84 516.644287
20.85 527.585754
20.86 531.682007
20.87 531.579102
20.88 524.403748
20.89 521.518311
