!@!!GADDS PLOTSO FILE: Chi integration type
!@!!Title/SampleName: ML_MAPbX3_chem5
!@!!User: NREL
!@!!Site: NREL SERF C211; SN 2510
!@!!Frame: 081022_MLProject_000_008.gfrm
!@!!Wavelengths    1.54184   1.54056   1.54439
!@!!Frame angles: 2Theta: 28.000 Omega: 5.000 Phi: 0.000 Chi: 90.000
!@!!Integration range: 2Theta: 10.000 to 40.000  Gamma: -135.000 to -45.000
!@!!Integration method: bin normalized
!@!N
!@!SS
!@!M
!@!L 0.0 0.0 0.0 0.0
!@!XDegrees
!@!YCounts
10.00 188.086594
10.02 185.301483
10.04 194.377258
10.06 198.88475
10.08 196.775238
10.10 194.330872
10.12 194.281067
10.14 191.778564
10.16 194.403122
10.18 200.417389
10.20 201.476776
10.22 201.995865
10.24 199.817734
10.26 194.93454
10.28 195.986847
10.30 207.603775
10.32 207.839813
10.34 213.232605
10.36 199.873749
10.38 191.930389
10.40 199.758881
10.42 210.333755
10.44 214.590134
10.46 206.577484
10.48 209.049744
10.50 212.44455
10.52 201.038208
10.54 206.146729
10.56 216.368637
10.58 217.121445
10.60 212.216309
10.62 215.960022
10.64 216.548737
10.66 202.328888
10.68 208.471039
10.70 216.619049
10.72 219.001663
10.74 221.521744
10.76 216.678406
10.78 210.384644
10.80 204.552872
10.82 210.149933
10.84 213.868927
10.86 220.337082
10.88 224.927856
10.90 216.548294
10.92 226.601212
10.94 228.348831
10.96 215.869003
10.98 207.068176
11.00 208.516861
11.02 217.407135
11.04 228.419067
11.06 225.165863
11.08 223.812302
11.10 219.536026
11.12 219.403534
11.14 224.604324
11.16 232.700363
11.18 228.034393
11.20 227.540695
11.22 229.455643
11.24 222.277374
11.26 222.731354
11.28 231.447601
11.30 230.450394
11.32 232.50827
11.34 232.037018
11.36 234.599091
11.38 222.142303
11.40 228.120743
11.42 233.619553
11.44 234.788513
11.46 235.276932
11.48 234.80809
11.50 235.685226
11.52 233.373978
11.54 243.978973
11.56 243.120956
11.58 236.545776
11.60 238.369003
11.62 236.25647
11.64 246.892944
11.66 243.677887
11.68 245.998489
11.70 242.79982
11.72 242.894363
11.74 242.975006
11.76 243.626373
11.78 241.272995
11.80 246.241867
11.82 249.438919
11.84 252.061386
11.86 248.883575
11.88 251.150482
11.90 248.94223
11.92 259.743561
11.94 254.457703
11.96 251.080246
11.98 256.821594
12.00 261.099548
12.02 267.975677
12.04 265.186768
12.06 268.707642
12.08 259.832062
12.10 267.624756
12.12 280.326538
12.14 284.454285
12.16 280.687622
12.18 284.699402
12.20 292.992065
12.22 296.151886
12.24 296.283722
12.26 301.730896
12.28 297.482269
12.30 300.880066
12.32 306.315399
12.34 316.989441
12.36 321.499573
12.38 318.470886
12.40 320.595703
12.42 324.024689
12.44 335.584503
12.46 348.509644
12.48 362.097778
12.50 359.927551
12.52 352.636017
12.54 350.301361
12.56 350.054993
12.58 348.459167
12.60 355.164093
12.62 362.715302
12.64 357.490509
12.66 347.25354
12.68 346.500092
12.70 339.35907
12.72 327.981171
12.74 320.624969
12.76 316.416931
12.78 317.270294
12.80 311.341766
12.82 306.103149
12.84 309.513824
12.86 302.827576
12.88 297.810638
12.90 297.262421
12.92 297.811584
12.94 289.10611
12.96 277.109375
12.98 278.125153
13.00 283.906769
13.02 287.328125
13.04 279.343384
13.06 284.427765
13.08 276.234253
13.10 279.807343
13.12 283.202209
13.14 274.241699
13.16 269.26355
13.18 277.521851
13.20 280.803558
13.22 275.237732
13.24 276.412292
13.26 278.178009
13.28 279.593597
13.30 276.254486
13.32 283.346802
13.34 290.986023
13.36 292.578583
13.38 295.06369
13.40 285.853363
13.42 279.609253
13.44 274.173126
13.46 273.672363
13.48 273.327301
13.50 276.68689
13.52 280.854431
13.54 288.286743
13.56 290.902252
13.58 285.605957
13.60 290.173096
13.62 290.628815
13.64 292.961914
13.66 295.54071
13.68 306.991455
13.70 314.166992
13.72 306.979797
13.74 305.781982
13.76 310.996094
13.78 309.023346
13.80 316.674347
13.82 328.272278
13.84 321.773071
13.86 335.554749
13.88 342.258179
13.90 344.468811
13.92 346.748871
13.94 352.423706
13.96 365.652588
13.98 383.182007
14.00 379.638885
14.02 381.574646
14.04 398.233826
14.06 426.066742
14.08 431.655334
14.10 442.632019
14.12 449.23877
14.14 465.781921
14.16 492.077759
14.18 498.801575
14.20 509.478851
14.22 535.109863
14.24 548.564636
14.26 567.145447
14.28 589.312561
14.30 596.915161
14.32 614.132385
14.34 633.644287
14.36 651.63269
14.38 661.650818
14.40 673.297607
14.42 680.743042
14.44 677.262817
14.46 653.512817
14.48 642.445068
14.50 635.06311
14.52 625.050659
14.54 615.207214
14.56 595.85675
14.58 593.645081
14.60 563.856262
14.62 557.118652
14.64 549.410767
14.66 549.532349
14.68 534.237183
14.70 521.241028
14.72 523.827332
14.74 537.138611
14.76 546.477051
14.78 538.843201
14.80 537.289917
14.82 538.464355
14.84 544.490417
14.86 551.858337
14.88 574.17218
14.90 577.286011
14.92 563.574402
14.94 578.604492
14.96 587.352112
14.98 599.704651
15.00 597.580933
15.02 595.37915
15.04 611.612305
15.06 623.740112
15.08 628.816101
15.10 623.972656
15.12 617.499451
15.14 609.899475
15.16 594.118713
15.18 591.431274
15.20 579.138123
15.22 557.211304
15.24 538.594788
15.26 518.811279
15.28 506.675476
15.30 481.542664
15.32 468.85733
15.34 447.387604
15.36 430.0755
15.38 418.684448
15.40 409.837067
15.42 397.320709
15.44 378.748383
15.46 367.359375
15.48 368.8302
15.50 356.702057
15.52 351.892456
15.54 350.406403
15.56 346.615479
15.58 338.993805
15.60 335.07196
15.62 332.775421
15.64 326.837585
15.66 318.347687
15.68 322.503418
15.70 324.761169
15.72 332.33548
15.74 328.010254
15.76 316.53009
15.78 318.421143
15.80 327.153778
15.82 325.265228
15.84 327.751251
15.86 322.843353
15.88 333.638977
15.90 325.584686
15.92 316.977661
15.94 316.79071
15.96 321.177002
15.98 318.048889
16.00 319.019928
16.02 322.677643
16.04 329.020142
16.06 324.40564
16.08 318.802612
16.10 319.154999
16.12 329.862579
16.14 334.44632
16.16 330.581146
16.18 332.85611
16.20 329.529968
16.22 327.581879
16.24 325.564178
16.26 323.8284
16.28 328.519012
16.30 323.559021
16.32 323.663849
16.34 324.895508
16.36 325.445435
16.38 325.904358
16.40 331.300049
16.42 333.299225
16.44 325.948212
16.46 325.237793
16.48 330.795471
16.50 325.844086
16.52 329.094482
16.54 333.254669
16.56 324.771912
16.58 320.960632
16.60 333.328217
16.62 342.524048
16.64 338.779846
16.66 341.087677
16.68 337.221893
16.70 335.935699
16.72 332.33371
16.74 335.721619
16.76 341.387878
16.78 338.031219
16.80 335.412384
16.82 335.755432
16.84 338.112488
16.86 337.341736
16.88 339.76825
16.90 341.029755
16.92 333.94754
16.94 345.370056
16.96 344.208893
16.98 337.803833
17.00 335.842194
17.02 329.976135
17.04 339.644684
17.06 341.138641
17.08 341.928528
17.10 340.42157
17.12 341.521912
17.14 340.758026
17.16 335.274689
17.18 339.325562
17.20 343.291229
17.22 343.985687
17.24 340.244843
17.26 347.318268
17.28 350.633728
17.30 347.005737
17.32 348.019226
17.34 337.493225
17.36 342.721893
17.38 351.584473
17.40 354.318909
17.42 349.940491
17.44 352.627441
17.46 352.204681
17.48 344.585724
17.50 350.381775
17.52 351.518402
17.54 344.556122
17.56 347.118256
17.58 343.527191
17.60 352.204651
17.62 359.617432
17.64 351.131409
17.66 351.441315
17.68 365.57608
17.70 358.793945
17.72 356.490723
17.74 366.07373
17.76 377.770874
17.78 370.435913
17.80 356.618683
17.82 358.751678
17.84 362.208221
17.86 364.328491
17.88 367.290131
17.90 367.828278
17.92 372.743561
17.94 374.408997
17.96 377.936432
17.98 374.82663
18.00 368.403259
18.02 379.128204
18.04 372.958862
18.06 367.053772
18.08 362.714966
18.10 369.957062
18.12 369.95047
18.14 378.054535
18.16 368.046722
18.18 369.057007
18.20 376.656891
18.22 364.489929
18.24 362.000427
18.26 368.24292
18.28 377.660919
18.30 382.824768
18.32 381.774139
18.34 384.465515
18.36 384.31543
18.38 383.279541
18.40 380.781189
18.42 381.151245
18.44 376.279602
18.46 377.011993
18.48 382.257751
18.50 381.525208
18.52 390.617828
18.54 391.721649
18.56 386.265869
18.58 381.074493
18.60 384.869019
18.62 395.875427
18.64 404.802643
18.66 399.187714
18.68 404.867615
18.70 403.167908
18.72 406.010101
18.74 409.987579
18.76 397.89682
18.78 392.648224
18.80 401.567963
18.82 406.215424
18.84 403.789337
18.86 402.0867
18.88 401.482758
18.90 400.180511
18.92 405.722931
18.94 402.978485
18.96 407.151886
18.98 405.177368
19.00 407.888641
19.02 409.316803
19.04 409.432159
19.06 409.685242
19.08 404.096954
19.10 405.867126
19.12 407.829926
19.14 413.960724
19.16 411.178772
19.18 408.638916
19.20 410.327087
19.22 407.481476
19.24 411.321167
19.26 415.606323
19.28 424.056427
19.30 422.607056
19.32 423.659729
19.34 420.541443
19.36 423.973938
19.38 427.516357
19.40 432.653473
19.42 432.816193
19.44 436.516418
19.46 423.775208
19.48 422.164154
19.50 419.526672
19.52 426.347229
19.54 427.129303
19.56 427.82724
19.58 426.955994
19.60 427.184906
19.62 430.677368
19.64 431.042023
19.66 432.054169
19.68 432.529572
19.70 441.225739
19.72 443.745392
19.74 446.153107
19.76 454.600891
19.78 450.254639
19.80 439.776855
19.82 438.670502
19.84 444.894714
19.86 452.551971
19.88 448.117279
19.90 449.246674
19.92 455.373627
19.94 456.508606
19.96 453.927032
19.98 450.39267
20.00 453.417267
20.02 458.550781
20.04 458.336395
20.06 460.611115
20.08 464.561676
20.10 465.127319
20.12 475.164307
20.14 476.946533
20.16 471.221283
20.18 463.110687
20.20 474.884338
20.22 471.20755
20.24 468.36792
20.26 478.238373
20.28 476.292053
20.30 473.83905
20.32 486.035187
20.34 483.558472
20.36 482.256317
20.38 483.153381
20.40 479.238312
20.42 479.944733
20.44 479.190826
20.46 481.675812
20.48 486.857635
20.50 482.995178
20.52 486.393402
20.54 494.355713
20.56 494.467316
20.58 486.833374
20.60 483.713654
20.62 485.450562
20.64 491.017395
20.66 493.714447
20.68 495.47876
20.70 493.566498
20.72 499.638306
20.74 504.298889
20.76 505.856964
20.78 502.264832
20.80 494.450775
20.82 490.189789
20.84 496.561707
20.86 503.13208
20.88 508.062531
20.90 504.652466
20.92 502.50592
20.94 508.284607
20.96 505.137329
20.98 514.427734
21.00 510.079071
21.02 508.343658
21.04 513.299561
21.06 521.152344
21.08 509.856232
21.10 500.816284
21.12 495.206055
21.14 509.371399
21.16 520.294983
21.18 515.895447
21.20 507.888336
21.22 504.185913
21.24 515.818665
21.26 524.091248
21.28 524.817932
21.30 523.591431
21.32 532.104614
21.34 532.905823
21.36 528.1297
21.38 526.455933
21.40 527.598511
21.42 527.805542
21.44 530.0672
21.46 536.929993
21.48 532.477295
21.50 524.340149
21.52 529.958923
21.54 529.973633
21.56 538.059021
21.58 539.563049
21.60 540.945251
21.62 532.469788
21.64 529.658142
21.66 532.794983
21.68 535.869751
21.70 537.93634
21.72 538.63031
21.74 528.562439
21.76 532.649414
21.78 534.796875
21.80 539.254333
21.82 537.690674
21.84 534.282959
21.86 538.160461
21.88 533.933044
21.90 537.471497
21.92 535.747009
21.94 531.066345
21.96 543.70929
21.98 548.561035
22.00 549.533936
22.02 550.700684
22.04 547.164551
22.06 549.844421
22.08 537.504578
22.10 541.203308
22.12 542.371948
22.14 545.631348
22.16 546.796509
22.18 547.131775
22.20 550.257446
22.22 541.820923
22.24 544.552307
22.26 555.921021
22.28 556.173218
22.30 549.474792
22.32 543.668518
22.34 543.001953
22.36 548.606201
22.38 553.982849
22.40 553.328979
22.42 554.075806
22.44 554.540894
22.46 541.57312
22.48 555.218689
22.50 558.534973
22.52 559.377808
22.54 558.526367
22.56 560.435547
22.58 558.001831
22.60 549.153442
22.62 566.641663
22.64 572.781189
22.66 570.228027
22.68 567.504028
22.70 572.516235
22.72 567.355347
22.74 568.262695
22.76 562.284668
22.78 564.567322
22.80 567.080444
22.82 569.809875
22.84 567.162903
22.86 571.173889
22.88 572.689758
22.90 573.768799
22.92 579.292847
22.94 571.365784
22.96 572.478088
22.98 579.811279
23.00 578.364502
23.02 572.316345
23.04 574.200134
23.06 572.509094
23.08 577.34436
23.10 579.514709
23.12 578.416687
23.14 572.079041
23.16 569.350708
23.18 573.21344
23.20 577.631714
23.22 583.461609
23.24 580.193054
23.26 579.872314
23.28 576.942322
23.30 579.646667
23.32 581.447876
23.34 582.548523
23.36 587.426025
23.38 586.312134
23.40 585.478882
23.42 581.00769
23.44 581.305542
23.46 590.616821
23.48 590.327942
23.50 577.85907
23.52 585.443542
23.54 589.947998
23.56 591.446167
23.58 580.055115
23.60 586.004639
23.62 589.45636
23.64 583.666504
23.66 581.911011
23.68 597.378235
23.70 592.841187
23.72 590.214844
23.74 584.921509
23.76 582.583496
23.78 580.760803
23.80 585.564819
23.82 594.613586
23.84 596.489807
23.86 596.465088
23.88 595.209106
23.90 589.198547
23.92 592.522949
23.94 593.815063
23.96 600.999878
23.98 589.009094
24.00 585.253967
24.02 597.298096
24.04 594.282715
24.06 590.256775
24.08 588.697021
24.10 595.565125
24.12 597.326111
24.14 592.715393
24.16 587.072021
24.18 590.789673
24.20 593.325378
24.22 593.484375
24.24 596.685913
24.26 600.649719
24.28 595.77832
24.30 592.18103
24.32 591.900879
24.34 593.239014
24.36 594.109131
24.38 593.814209
24.40 592.517334
24.42 592.434692
24.44 596.132751
24.46 598.969666
24.48 598.112061
24.50 598.395813
24.52 596.865601
24.54 602.072998
24.56 600.374329
24.58 599.048401
24.60 590.970764
24.62 595.212219
24.64 603.461975
24.66 609.673767
24.68 611.467957
24.70 599.510132
24.72 593.08197
24.74 600.337952
24.76 605.160217
24.78 604.256897
24.80 603.300964
24.82 601.671265
24.84 601.823364
24.86 600.103943
24.88 599.998047
24.90 594.102478
24.92 608.726807
24.94 612.690186
24.96 600.46637
24.98 608.995361
25.00 612.877197
25.02 605.955811
25.04 606.97821
25.06 608.026917
25.08 603.587708
25.10 604.608582
25.12 608.771362
25.14 602.488647
25.16 594.860107
25.18 592.322021
25.20 604.439087
25.22 615.636597
25.24 618.610046
25.26 604.539734
25.28 596.427917
25.30 603.271179
25.32 604.580872
25.34 605.697205
25.36 599.186096
25.38 608.148499
25.40 605.832703
25.42 607.1875
25.44 602.161011
25.46 598.98468
25.48 607.613708
25.50 609.455994
25.52 606.583801
25.54 613.527405
25.56 607.270569
25.58 605.732239
25.60 604.674622
25.62 598.30365
25.64 599.264526
25.66 604.963623
25.68 608.626831
25.70 614.077026
25.72 606.537476
25.74 603.008484
25.76 598.148193
25.78 596.336426
25.80 596.080872
25.82 597.096252
25.84 596.228088
25.86 610.291626
25.88 613.108398
25.90 610.660217
25.92 610.597717
25.94 602.620605
25.96 595.528992
25.98 609.429199
26.00 607.252441
26.02 606.741577
26.04 609.94104
26.06 607.859924
26.08 601.107056
26.10 596.03949
26.12 597.273254
26.14 602.7724
26.16 601.879272
26.18 603.457031
26.20 603.649597
26.22 604.044128
26.24 609.50061
26.26 612.330688
26.28 598.809814
26.30 597.798828
26.32 600.404053
26.34 605.521301
26.36 603.84082
26.38 602.602966
26.40 597.800171
26.42 595.466125
26.44 597.014893
26.46 595.660034
26.48 602.026794
26.50 591.387268
26.52 590.802734
26.54 598.657043
26.56 607.170776
26.58 594.878235
26.60 587.659912
26.62 595.265259
26.64 601.346558
26.66 602.680054
26.68 599.930054
26.70 607.370544
26.72 603.552429
26.74 594.510315
26.76 594.094666
26.78 595.642273
26.80 594.331421
26.82 592.402771
26.84 594.965942
26.86 590.941589
26.88 593.299927
26.90 593.842529
26.92 591.830872
26.94 594.873901
26.96 601.912964
26.98 605.762634
27.00 607.39386
27.02 601.914185
27.04 599.456787
27.06 591.200623
27.08 598.389099
27.10 598.695923
27.12 597.913757
27.14 594.71167
27.16 588.63562
27.18 596.3927
27.20 593.636719
27.22 591.786377
27.24 599.714966
27.26 597.477051
27.28 599.350037
27.30 590.327393
27.32 597.088928
27.34 594.954834
27.36 589.435425
27.38 590.257446
27.40 594.286926
27.42 597.88208
27.44 598.570984
27.46 597.765808
27.48 599.550232
27.50 598.935852
27.52 589.376709
27.54 582.90332
27.56 589.558472
27.58 592.739929
27.60 594.487427
27.62 596.843628
27.64 589.55304
27.66 589.685486
27.68 598.9104
27.70 594.262268
27.72 591.610718
27.74 586.66748
27.76 596.910217
27.78 590.514832
27.80 584.505493
27.82 586.7948
27.84 593.479004
27.86 589.152649
27.88 588.06366
27.90 587.451599
27.92 587.237793
27.94 594.50415
27.96 600.849304
27.98 604.444397
28.00 598.166016
28.02 594.306335
28.04 594.443542
28.06 597.048828
28.08 589.650146
28.10 590.671204
28.12 597.993774
28.14 591.610413
28.16 586.342896
28.18 588.73053
28.20 593.346985
28.22 582.976746
28.24 586.109497
28.26 591.524353
28.28 592.648987
28.30 590.173035
28.32 589.61377
28.34 605.051331
28.36 599.420654
28.38 594.262512
28.40 591.829163
28.42 598.451477
28.44 600.926514
28.46 599.174011
28.48 597.133606
28.50 601.561096
28.52 599.885742
28.54 600.069397
28.56 602.031738
28.58 607.971741
28.60 609.834167
28.62 613.731934
28.64 609.913452
28.66 610.102051
28.68 615.267151
28.70 616.532471
28.72 623.726379
28.74 625.287231
28.76 626.65033
28.78 643.361389
28.80 646.792419
28.82 647.56842
28.84 645.804199
28.86 647.842896
28.88 653.931763
28.90 666.791931
28.92 668.651672
28.94 670.437927
28.96 670.813965
28.98 674.069397
29.00 672.363342
29.02 676.477417
29.04 683.11261
29.06 693.554321
29.08 682.261536
29.10 675.936646
29.12 665.857727
29.14 668.81366
29.16 677.765747
29.18 672.926819
29.20 673.011292
29.22 674.035217
29.24 664.317383
29.26 650.984131
29.28 651.862732
29.30 648.967346
29.32 648.250549
29.34 647.954956
29.36 641.05719
29.38 637.588318
29.40 619.97345
29.42 624.264221
29.44 615.607788
29.46 621.091309
29.48 622.862549
29.50 624.087097
29.52 623.240845
29.54 613.938965
29.56 603.233643
29.58 600.333862
29.60 599.327759
29.62 595.767212
29.64 592.502136
29.66 594.197205
29.68 601.853577
29.70 601.424255
29.72 605.252014
29.74 598.601685
29.76 589.461243
29.78 587.331482
29.80 588.838623
29.82 588.942749
29.84 590.894043
29.86 580.131287
29.88 579.971008
29.90 587.398132
29.92 587.625671
29.94 586.18811
29.96 588.88562
29.98 589.363953
30.00 584.089111
30.02 583.094421
30.04 583.460815
30.06 589.761414
30.08 587.488708
30.10 591.185242
30.12 590.789551
30.14 590.331848
30.16 586.673401
30.18 588.28717
30.20 591.796936
30.22 593.600098
30.24 589.098511
30.26 589.703918
30.28 589.960449
30.30 584.997803
30.32 591.501526
30.34 602.942322
30.36 604.639893
30.38 602.609985
30.40 609.869141
30.42 608.47522
30.44 613.240051
30.46 618.235474
30.48 620.443115
30.50 617.228394
30.52 622.495117
30.54 624.781494
30.56 628.012268
30.58 610.634033
30.60 608.295349
30.62 609.014771
30.64 611.266113
30.66 594.587097
30.68 592.121338
30.70 595.96344
30.72 595.075256
30.74 593.174438
30.76 579.395386
30.78 572.174377
30.80 573.036865
30.82 571.214355
30.84 564.256104
30.86 567.981445
30.88 560.489807
30.90 548.920837
30.92 549.758972
30.94 545.835632
30.96 552.388489
30.98 545.75708
31.00 545.647705
31.02 549.687927
31.04 544.489929
31.06 543.206055
31.08 529.286682
31.10 530.426086
31.12 526.950439
31.14 534.066833
31.16 529.667419
31.18 526.057861
31.20 524.345032
31.22 519.976379
31.24 521.599792
31.26 525.687134
31.28 522.41626
31.30 516.952209
31.32 525.948181
31.34 526.869263
31.36 519.155701
31.38 522.330383
31.40 513.865479
31.42 520.447632
31.44 522.964966
31.46 510.183014
31.48 510.643433
31.50 516.207092
31.52 513.553833
31.54 515.13623
31.56 516.657227
31.58 519.38562
31.60 517.200745
31.62 507.34137
31.64 505.634064
31.66 506.407776
31.68 503.441498
31.70 510.282867
31.72 510.725494
31.74 513.649414
31.76 517.948975
31.78 517.959412
31.80 515.394653
