!@!!GADDS PLOTSO FILE: Chi integration type
!@!!Title/SampleName: ML_MAPbX3_chem3
!@!!User: NREL
!@!!Site: NREL SERF C211; SN 2510
!@!!Frame: C:\frames\rbelisle\MLProject\081022_MLProject_000_006.gfrm
!@!!Wavelengths    1.54184   1.54056   1.54439
!@!!Frame angles: 2Theta: 28.000 Omega: 5.000 Phi: 0.000 Chi: 90.000
!@!!Integration range: 2Theta: 10.000 to 40.000  Gamma: -130.000 to -110.000
!@!!Integration method: bin normalized
!@!N
!@!SS
!@!M
!@!L 0.0 0.0 0.0 0.0
!@!XDegrees
!@!YCounts
10.00 207.727585
10.02 202.433273
10.04 196.591232
10.06 205.032913
10.08 186.825256
10.10 193.404037
10.12 215.567459
10.14 196.141174
10.16 191.261536
10.18 208.567047
10.20 205.602509
10.22 198.284698
10.24 200.818771
10.26 214.33844
10.28 199.01889
10.30 189.486511
10.32 204.295425
10.34 193.916428
10.36 207.193649
10.38 199.61113
10.40 214.382248
10.42 196.562286
10.44 199.904831
10.46 192.192245
10.48 204.942154
10.50 212.533432
10.52 220.719864
10.54 232.65332
10.56 215.623535
10.58 223.349762
10.60 238.442017
10.62 230.492325
10.64 221.361679
10.66 233.006927
10.68 224.13446
10.70 227.286179
10.72 226.57196
10.74 228.452881
10.76 221.608261
10.78 233.195496
10.80 237.310776
10.82 227.20491
10.84 211.952255
10.86 220.406311
10.88 222.756805
10.90 205.459564
10.92 225.705246
10.94 223.93985
10.96 217.813446
10.98 208.482285
11.00 221.358276
11.02 222.420319
11.04 219.450378
11.06 228.47757
11.08 229.907791
11.10 227.418396
11.12 236.389206
11.14 227.494217
11.16 220.184845
11.18 230.181808
11.20 221.57222
11.22 218.780716
11.24 232.011322
11.26 219.207672
11.28 225.125793
11.30 230.168716
11.32 223.025879
11.34 213.401428
11.36 231.114304
11.38 239.981888
11.40 226.690659
11.42 238.605347
11.44 226.670425
11.46 237.518951
11.48 246.609909
11.50 234.905746
11.52 217.604782
11.54 213.998611
11.56 247.195282
11.58 259.851349
11.60 249.266876
11.62 230.837845
11.64 219.635696
11.66 233.159103
11.68 230.543243
11.70 229.599686
11.72 226.881668
11.74 236.136261
11.76 252.673721
11.78 249.01265
11.80 222.91037
11.82 238.231201
11.84 239.541214
11.86 236.556473
11.88 240.230011
11.90 239.010269
11.92 246.254486
11.94 253.070114
11.96 234.03418
11.98 247.17305
12.00 247.656586
12.02 251.316223
12.04 248.155609
12.06 248.719269
12.08 232.039047
12.10 239.338943
12.12 243.114044
12.14 243.448257
12.16 245.984512
12.18 240.213821
12.20 244.242523
12.22 249.640472
12.24 249.234451
12.26 244.729691
12.28 262.673615
12.30 264.07547
12.32 266.183136
12.34 256.470825
12.36 250.454178
12.38 251.942734
12.40 259.031311
12.42 250.866104
12.44 251.298843
12.46 252.349289
12.48 246.342712
12.50 244.807587
12.52 246.018295
12.54 242.580719
12.56 228.610474
12.58 236.367249
12.60 255.113571
12.62 254.464813
12.64 239.358704
12.66 253.054321
12.68 273.382568
12.70 253.744522
12.72 248.067337
12.74 255.340729
12.76 265.419067
12.78 282.109558
12.80 273.695374
12.82 262.03653
12.84 266.515259
12.86 253.529633
12.88 259.174072
12.90 254.470673
12.92 248.984787
12.94 241.131516
12.96 258.155304
12.98 260.672394
13.00 254.10199
13.02 265.641937
13.04 260.944305
13.06 253.353897
13.08 244.397156
13.10 255.401627
13.12 258.061523
13.14 251.82901
13.16 271.830536
13.18 257.749084
13.20 256.744873
13.22 273.18927
13.24 281.061096
13.26 273.62149
13.28 256.546051
13.30 248.786179
13.32 247.379898
13.34 260.786346
13.36 269.239624
13.38 273.614044
13.40 266.126007
13.42 256.444458
13.44 264.130463
13.46 261.035858
13.48 266.224518
13.50 258.359314
13.52 253.545029
13.54 264.747833
13.56 260.900696
13.58 271.376495
13.60 272.51358
13.62 243.932755
13.64 243.72551
13.66 263.878235
13.68 267.376038
13.70 275.339935
13.72 272.433258
13.74 276.91449
13.76 278.508026
13.78 262.275024
13.80 258.512543
13.82 270.97522
13.84 287.17395
13.86 270.656708
13.88 266.908356
13.90 259.106781
13.92 254.303162
13.94 280.025269
13.96 280.501862
13.98 287.931488
14.00 281.651825
14.02 282.458405
14.04 278.919006
14.06 261.737579
14.08 270.288483
14.10 274.334381
14.12 279.644165
14.14 283.861969
14.16 279.489319
14.18 266.286011
14.20 276.061096
14.22 284.769531
14.24 280.463654
14.26 283.183319
14.28 281.563019
14.30 279.956177
14.32 292.08725
14.34 294.567322
14.36 282.370911
14.38 289.825714
14.40 294.657166
14.42 282.24704
14.44 290.585358
14.46 280.16214
14.48 269.332794
14.50 270.985565
14.52 296.163422
14.54 307.424347
14.56 284.561218
14.58 282.092499
14.60 294.970459
14.62 295.246094
14.64 288.62735
14.66 288.255127
14.68 280.624695
14.70 291.575348
14.72 289.057343
14.74 289.131378
14.76 293.786987
14.78 301.187347
14.80 304.533356
14.82 302.238129
14.84 297.162872
14.86 291.988312
14.88 299.272583
14.90 309.190887
14.92 299.270233
14.94 303.511078
14.96 311.569763
14.98 315.57074
15.00 327.648895
15.02 330.472351
15.04 302.611176
15.06 314.564514
15.08 313.155701
15.10 311.011719
15.12 298.097473
15.14 298.636627
15.16 317.722137
15.18 301.180115
15.20 306.655212
15.22 332.811829
15.24 327.827026
15.26 298.321167
15.28 306.88739
15.30 312.264862
15.32 300.518036
15.34 310.71402
15.36 331.787933
15.38 325.768616
15.40 314.38092
15.42 320.778229
15.44 299.571991
15.46 307.749054
15.48 315.340851
15.50 305.243286
15.52 289.555817
15.54 298.212158
15.56 306.084473
15.58 309.694824
15.60 311.413879
15.62 297.833435
15.64 312.478241
15.66 325.543182
15.68 324.350281
15.70 334.471283
15.72 305.872498
15.74 302.961273
15.76 305.644135
15.78 303.991394
15.80 309.058105
15.82 308.311279
15.84 313.732269
15.86 316.441345
15.88 305.184296
15.90 304.077911
15.92 300.270172
15.94 287.93811
15.96 303.262726
15.98 324.347351
16.00 302.592651
16.02 291.520538
16.04 314.905853
16.06 305.813812
16.08 299.7453
16.10 305.188721
16.12 300.258423
16.14 301.68631
16.16 296.217499
16.18 303.725098
16.20 313.548431
16.22 309.933197
16.24 319.528412
16.26 327.761688
16.28 325.481934
16.30 316.228973
16.32 298.603119
16.34 309.379547
16.36 299.536255
16.38 300.016632
16.40 292.075775
16.42 312.081421
16.44 312.671051
16.46 314.904724
16.48 315.124817
16.50 313.697357
16.52 322.78595
16.54 324.771484
16.56 319.788177
16.58 307.289337
16.60 308.885223
16.62 311.38269
16.64 304.00531
16.66 327.378143
16.68 340.979553
16.70 333.596039
16.72 338.412048
16.74 345.985321
16.76 326.776917
16.78 318.409637
16.80 305.766968
16.82 323.080444
16.84 321.372467
16.86 325.14325
16.88 321.141632
16.90 311.498688
16.92 315.755005
16.94 327.369446
16.96 324.846771
16.98 322.152893
17.00 319.039398
17.02 308.380402
17.04 310.029266
17.06 322.315552
17.08 323.429596
17.10 313.057281
17.12 319.818451
17.14 348.160736
17.16 349.470398
17.18 341.854309
17.20 323.756012
17.22 327.853363
17.24 313.593964
17.26 323.629944
17.28 337.415924
17.30 354.335846
17.32 352.71347
17.34 351.533081
17.36 345.674347
17.38 329.775726
17.40 333.308868
17.42 338.854797
17.44 346.266327
17.46 349.003571
17.48 354.392853
17.50 335.352417
17.52 324.278015
17.54 341.038879
17.56 353.997437
17.58 344.862518
17.60 332.615356
17.62 336.419739
17.64 346.640961
17.66 342.301971
17.68 332.077972
17.70 340.108734
17.72 339.475952
17.74 347.902039
17.76 348.462616
17.78 352.500946
17.80 354.915588
17.82 367.799835
17.84 368.706268
17.86 354.23172
17.88 356.236328
17.90 368.882965
17.92 359.885651
17.94 354.789948
17.96 348.539978
17.98 352.327545
18.00 347.105743
18.02 352.313202
18.04 354.887207
18.06 356.466156
18.08 354.782379
18.10 353.517365
18.12 351.674438
18.14 356.084106
18.16 348.004303
18.18 338.590942
18.20 339.8703
18.22 348.348969
18.24 365.100281
18.26 355.665009
18.28 355.569489
18.30 339.559052
18.32 370.479248
18.34 375.634979
18.36 372.155243
18.38 378.048401
18.40 371.694763
18.42 365.806915
18.44 345.243744
18.46 337.400513
18.48 350.925568
18.50 369.084686
18.52 369.315552
18.54 373.241943
18.56 363.623077
18.58 371.158295
18.60 350.134064
18.62 367.018829
18.64 358.72287
18.66 354.62674
18.68 353.693634
18.70 342.379395
18.72 358.214691
18.74 357.343933
18.76 373.953735
18.78 390.362396
18.80 372.066803
18.82 384.756683
18.84 370.082794
18.86 381.587952
18.88 378.21759
18.90 372.526428
18.92 374.90036
18.94 368.940491
18.96 383.552704
18.98 384.455139
19.00 386.734344
19.02 373.947906
19.04 367.766907
19.06 366.341461
19.08 379.258453
19.10 397.417206
19.12 376.597473
19.14 393.611023
19.16 405.191925
19.18 408.997742
19.20 403.168091
19.22 384.573425
19.24 376.997955
19.26 379.243347
19.28 375.932556
19.30 394.581635
19.32 394.984192
19.34 393.495148
19.36 410.222137
19.38 411.408539
19.40 414.704987
19.42 400.467712
19.44 388.911804
19.46 398.296143
19.48 398.479095
19.50 387.074097
19.52 386.128601
19.54 399.283752
19.56 409.00885
19.58 398.957764
19.60 403.896942
19.62 397.236298
19.64 404.791809
19.66 409.800568
19.68 397.485565
19.70 415.676086
19.72 404.316162
19.74 414.048431
19.76 415.361298
19.78 416.99353
19.80 423.455841
19.82 412.023712
19.84 401.190125
19.86 416.051422
19.88 430.061951
19.90 417.749939
19.92 415.594635
19.94 415.147766
19.96 409.599579
19.98 405.355743
20.00 415.943542
20.02 400.138458
20.04 394.529449
20.06 414.520203
20.08 438.928314
20.10 442.742706
20.12 411.447144
20.14 419.634644
20.16 428.183838
20.18 413.635193
20.20 419.285797
20.22 420.114288
20.24 420.462341
20.26 425.954346
20.28 437.706055
20.30 427.445618
20.32 435.51355
20.34 439.356201
20.36 432.631012
20.38 445.320129
20.40 444.935944
20.42 444.277588
20.44 441.307953
20.46 456.698395
20.48 451.825714
20.50 435.041534
20.52 450.661652
20.54 451.304779
20.56 456.533722
20.58 453.409912
20.60 440.086914
20.62 446.356354
20.64 426.429413
20.66 429.470795
20.68 434.980286
20.70 466.924438
20.72 461.020721
20.74 443.72998
20.76 453.136444
20.78 466.25238
20.80 452.732239
20.82 463.894226
20.84 464.273804
20.86 458.120758
20.88 460.626343
20.90 462.118011
20.92 463.409088
20.94 441.948181
20.96 447.562347
20.98 445.512268
21.00 445.331879
21.02 449.750427
21.04 455.797424
21.06 456.61319
21.08 453.358643
21.10 452.931763
21.12 459.720459
21.14 468.529327
21.16 468.790375
21.18 454.924713
21.20 462.782806
21.22 466.086426
21.24 460.88559
21.26 473.03952
21.28 483.415344
21.30 486.005615
21.32 492.006134
21.34 486.724762
21.36 464.514496
21.38 470.060394
21.40 478.607666
21.42 482.318054
21.44 473.14386
21.46 464.735016
21.48 489.948151
21.50 492.704712
21.52 500.839325
21.54 500.820892
21.56 505.837433
21.58 496.336517
21.60 510.367584
21.62 501.411041
21.64 512.224121
21.66 511.499817
21.68 512.886902
21.70 525.721924
21.72 542.980957
21.74 528.898743
21.76 510.017426
21.78 499.686432
21.80 505.235138
21.82 507.309174
21.84 507.293488
21.86 512.809326
21.88 532.358826
21.90 523.80658
21.92 496.597351
21.94 498.916077
21.96 499.703247
21.98 496.314941
22.00 504.084473
22.02 508.086792
22.04 506.365936
22.06 504.632263
22.08 526.783447
22.10 532.125732
22.12 518.790771
22.14 526.827087
22.16 505.193207
22.18 511.92627
22.20 500.822052
22.22 496.379059
22.24 505.490448
22.26 522.735413
22.28 516.979004
22.30 501.766541
22.32 482.273132
22.34 489.033539
22.36 498.531891
22.38 502.478638
22.40 512.383301
22.42 505.734894
22.44 518.463806
22.46 498.17865
22.48 508.019287
22.50 517.248535
22.52 519.840637
22.54 515.590027
22.56 502.982178
22.58 499.843475
22.60 497.115204
22.62 502.846313
22.64 500.857513
22.66 515.470703
22.68 513.060364
22.70 518.5495
22.72 538.544983
22.74 533.581848
22.76 511.12207
22.78 515.144897
22.80 506.919495
22.82 496.087952
22.84 497.456329
22.86 518.362488
22.88 513.30658
22.90 514.797974
22.92 526.217712
22.94 506.401489
22.96 491.917358
22.98 498.838104
23.00 517.510071
23.02 513.346008
23.04 525.000854
23.06 545.041382
23.08 527.370667
23.10 514.371948
23.12 512.639038
23.14 523.381653
23.16 518.691406
23.18 515.88031
23.20 527.800049
23.22 506.325348
23.24 502.898102
23.26 536.364258
23.28 554.576599
23.30 546.120361
23.32 514.198853
23.34 519.258972
23.36 526.614014
23.38 530.380249
23.40 518.24762
23.42 529.270752
23.44 540.117554
23.46 530.815796
23.48 525.30072
23.50 550.655823
23.52 553.403687
23.54 543.879211
23.56 554.593567
23.58 538.134766
23.60 533.164185
23.62 546.785706
23.64 533.419434
23.66 532.730225
23.68 543.37738
23.70 537.14801
23.72 538.151184
23.74 531.343201
23.76 538.92157
23.78 537.402222
23.80 529.297546
23.82 527.566345
23.84 528.33844
23.86 531.916992
23.88 555.364624
23.90 534.747864
23.92 529.874146
23.94 533.182068
23.96 526.585876
23.98 544.116455
24.00 548.397522
24.02 532.803528
24.04 528.971863
24.06 517.702942
24.08 534.717102
24.10 542.690979
24.12 540.695679
24.14 522.484924
24.16 509.516205
24.18 524.388306
24.20 534.542603
24.22 535.888184
24.24 560.125244
24.26 550.052979
24.28 540.574585
24.30 514.686584
24.32 526.505188
24.34 529.046326
24.36 522.187012
24.38 545.314331
24.40 547.906189
24.42 550.149292
24.44 539.96228
24.46 548.008972
24.48 535.896179
24.50 539.007507
24.52 523.40979
24.54 531.87439
24.56 540.360657
24.58 531.066772
24.60 537.278137
24.62 528.154053
24.64 537.265442
24.66 551.481384
24.68 542.643738
24.70 537.124939
24.72 535.080261
24.74 533.770874
24.76 520.827026
24.78 530.92981
24.80 549.015015
24.82 543.547119
24.84 526.595093
24.86 527.317749
24.88 529.480957
24.90 525.704285
24.92 530.001099
24.94 531.029419
24.96 543.342896
24.98 547.061646
25.00 528.067322
25.02 524.225891
25.04 532.544067
25.06 534.347961
25.08 527.932068
25.10 522.375488
25.12 516.333618
25.14 545.214783
25.16 548.874268
25.18 545.824402
25.20 539.958557
25.22 529.70697
25.24 533.71405
25.26 531.684875
25.28 512.744507
25.30 515.706177
25.32 528.997803
25.34 537.895203
25.36 537.64093
25.38 528.904236
25.40 532.576965
25.42 535.076538
25.44 528.831726
25.46 534.814209
25.48 549.012573
25.50 554.234558
25.52 525.356262
25.54 519.810303
25.56 526.583374
25.58 540.460938
25.60 543.371704
25.62 544.87561
25.64 530.418701
25.66 513.987183
25.68 526.178528
25.70 523.249817
25.72 539.799988
25.74 536.029297
25.76 525.951111
25.78 528.03656
25.80 545.790955
25.82 542.454651
25.84 536.520996
25.86 532.085144
25.88 524.360229
25.90 527.729248
25.92 544.76709
25.94 548.78894
25.96 550.991211
25.98 547.015381
26.00 541.900391
26.02 549.819824
26.04 539.580444
26.06 533.893738
26.08 557.602295
26.10 559.377075
26.12 540.007751
26.14 542.449646
26.16 543.914917
26.18 527.157959
26.20 509.818726
26.22 526.253723
26.24 549.045654
26.26 535.551636
26.28 531.456177
26.30 533.430603
26.32 533.843628
26.34 540.579651
26.36 547.840759
26.38 546.858215
26.40 529.491699
26.42 516.857056
26.44 514.183472
26.46 522.727661
26.48 532.70343
26.50 520.724976
26.52 513.899048
26.54 520.565125
26.56 516.897095
26.58 527.543091
26.60 531.341125
26.62 534.141357
26.64 534.781067
26.66 537.563293
26.68 537.757813
26.70 531.101563
26.72 533.373352
26.74 531.23053
26.76 524.510864
26.78 530.063477
26.80 538.166748
26.82 537.618408
26.84 542.133057
26.86 553.047729
26.88 548.318298
26.90 538.694763
26.92 529.855652
26.94 519.619934
26.96 522.752197
26.98 513.43927
27.00 519.539551
27.02 542.804688
27.04 528.982971
27.06 509.458984
27.08 493.747467
27.10 505.086517
27.12 528.22699
27.14 528.784668
27.16 519.143616
27.18 514.800781
27.20 515.644836
27.22 518.445923
27.24 528.577454
27.26 509.538147
27.28 518.542664
27.30 533.977234
27.32 535.18103
27.34 535.128418
27.36 532.426331
27.38 529.424561
27.40 518.254883
27.42 529.827026
27.44 530.521973
27.46 534.591248
27.48 522.460754
27.50 520.233337
27.52 518.195374
27.54 525.274902
27.56 525.2677
27.58 520.720398
27.60 519.792847
27.62 528.348511
27.64 526.392456
27.66 529.399658
27.68 536.524292
27.70 537.919739
27.72 550.752258
27.74 532.479309
27.76 538.755859
27.78 528.842407
27.80 524.159058
27.82 509.024872
27.84 513.045227
27.86 522.426453
27.88 519.199646
27.90 522.07605
27.92 520.202332
27.94 512.084717
27.96 526.748657
27.98 515.167603
28.00 515.511536
28.02 521.594238
28.04 524.506653
28.06 527.049072
28.08 526.197632
28.10 529.128906
28.12 537.693359
28.14 532.112183
28.16 539.386902
28.18 533.526123
28.20 525.943481
28.22 522.961914
28.24 535.190247
28.26 531.74469
28.28 532.056213
28.30 534.572571
28.32 528.763916
28.34 531.139465
28.36 529.0672
28.38 529.199524
28.40 530.459656
28.42 520.408936
28.44 504.52951
28.46 517.437622
28.48 521.65509
28.50 520.300232
28.52 510.207825
28.54 506.447479
28.56 529.499023
28.58 533.542419
28.60 516.543152
28.62 520.412659
28.64 516.609253
28.66 505.983673
28.68 498.764282
28.70 516.352234
28.72 514.795715
28.74 515.370422
28.76 511.612427
28.78 513.588623
28.80 507.991272
28.82 503.762848
28.84 513.220703
28.86 521.730103
28.88 517.811829
28.90 524.747375
28.92 523.436707
28.94 535.303589
28.96 536.208801
28.98 525.882751
29.00 529.44397
29.02 531.372803
29.04 539.814453
29.06 516.501343
29.08 505.84613
29.10 512.883423
29.12 521.058838
29.14 529.52533
29.16 520.089172
29.18 514.786804
29.20 517.801575
29.22 513.259521
29.24 504.117371
29.26 493.70459
29.28 503.636627
29.30 517.886902
29.32 518.832581
29.34 495.845642
29.36 504.647888
29.38 508.902832
29.40 511.608917
29.42 506.411774
29.44 507.464569
29.46 516.91217
29.48 522.088318
29.50 513.763733
29.52 522.67157
29.54 526.261841
29.56 518.390381
29.58 515.179565
29.60 516.683167
29.62 515.077148
29.64 526.588745
29.66 532.157288
29.68 513.696106
29.70 515.187805
29.72 511.336792
29.74 503.145782
29.76 505.568604
29.78 513.754822
29.80 516.737061
29.82 502.51062
29.84 504.440491
29.86 495.273346
29.88 495.753418
29.90 523.459656
29.92 519.766296
29.94 520.062073
29.96 519.814514
29.98 522.909485
30.00 517.44635
30.02 507.633209
30.04 502.518494
30.06 485.606018
30.08 492.599701
30.10 498.683685
30.12 504.108429
30.14 499.672974
30.16 508.64032
30.18 511.195648
30.20 501.341614
30.22 499.467316
30.24 500.697083
30.26 507.629883
30.28 512.010986
30.30 500.809814
30.32 505.649292
30.34 503.435852
30.36 521.427307
30.38 525.067627
30.40 508.363892
30.42 499.795013
30.44 505.179108
30.46 508.948059
30.48 496.43338
30.50 489.57782
30.52 501.242065
30.54 508.205566
30.56 499.019409
30.58 491.485107
30.60 502.013306
30.62 500.016998
30.64 494.758179
30.66 504.899628
30.68 508.783081
30.70 502.681793
30.72 485.744293
30.74 502.204681
30.76 503.96759
30.78 507.098053
30.80 509.053131
30.82 511.365906
30.84 513.57251
30.86 517.704224
30.88 517.98877
30.90 498.303925
30.92 489.252167
30.94 501.409088
30.96 500.388672
30.98 500.708771
31.00 499.96048
31.02 483.729401
31.04 494.36673
31.06 501.234741
31.08 506.417725
31.10 493.249969
31.12 490.578827
31.14 490.227386
31.16 509.626343
31.18 499.079987
31.20 503.893036
31.22 505.090637
31.24 509.321533
31.26 503.634094
31.28 503.637573
31.30 487.628082
31.32 489.597168
31.34 483.373413
31.36 499.031158
31.38 499.072327
31.40 499.282288
31.42 494.756378
31.44 491.923401
31.46 481.525238
31.48 486.210724
31.50 492.833221
31.52 499.229065
31.54 494.954254
31.56 501.182251
31.58 495.267456
31.60 487.818085
31.62 482.226044
31.64 476.560059
31.66 480.806396
31.68 491.473846
31.70 468.972931
31.72 468.819794
31.74 482.836487
31.76 485.503265
