!@!!GADDS PLOTSO FILE: Chi integration type
!@!!Title/SampleName: ML_MAPbX3
!@!!User: NREL
!@!!Site: NREL SERF C211; SN 2510
!@!!Frame: 081022_MLProject_000_008.gfrm
!@!!Wavelengths    1.54184   1.54056   1.54439
!@!!Frame angles: 2Theta: 28.000 Omega: 5.000 Phi: 0.000 Chi: 90.000
!@!!Integration range: 2Theta: 10.000 to 40.000  Gamma: -135.000 to -110.000
!@!!Integration method: bin normalized
!@!N
!@!SS
!@!M
!@!L 0.0 0.0 0.0 0.0
!@!XDegrees
!@!YCounts
10.00 134.953735
10.02 146.732971
10.04 162.623749
10.06 170.224991
10.08 163.66748
10.10 155.958069
10.12 154.170471
10.14 158.554108
10.16 158.657791
10.18 173.172058
10.20 158.611801
10.22 170.327942
10.24 168.07869
10.26 165.769058
10.28 176.472412
10.30 176.395355
10.32 166.991501
10.34 181.324753
10.36 172.576309
10.38 168.375214
10.40 167.476501
10.42 169.292175
10.44 182.294006
10.46 176.791412
10.48 174.557587
10.50 182.535522
10.52 168.035461
10.54 179.054581
10.56 184.193649
10.58 187.361542
10.60 185.721085
10.62 192.249435
10.64 191.221909
10.66 181.012161
10.68 199.09935
10.70 195.999512
10.72 202.003616
10.74 186.755814
10.76 187.953537
10.78 191.794159
10.80 191.827728
10.82 191.663879
10.84 200.009918
10.86 207.269043
10.88 197.676102
10.90 183.788986
10.92 192.595337
10.94 205.338348
10.96 187.932632
10.98 179.927261
11.00 194.076523
11.02 193.11824
11.04 195.196213
11.06 191.087433
11.08 198.982056
11.10 193.095108
11.12 195.696838
11.14 200.107819
11.16 201.927658
11.18 208.378143
11.20 202.19693
11.22 186.771454
11.24 193.982437
11.26 206.167084
11.28 200.691132
11.30 202.912933
11.32 198.659775
11.34 198.845627
11.36 215.52951
11.38 205.368851
11.40 214.462708
11.42 225.894348
11.44 222.914658
11.46 220.724533
11.48 208.906342
11.50 203.738846
11.52 204.629639
11.54 229.931061
11.56 235.537964
11.58 216.546143
11.60 218.238403
11.62 226.224762
11.64 231.905045
11.66 224.072571
11.68 210.317627
11.70 206.19223
11.72 204.136932
11.74 207.880447
11.76 213.283585
11.78 219.360855
11.80 229.140213
11.82 236.385559
11.84 227.859741
11.86 213.548859
11.88 226.584167
11.90 238.491257
11.92 222.414383
11.94 204.339188
11.96 215.943481
11.98 220.773224
12.00 230.196594
12.02 240.226471
12.04 234.292236
12.06 212.167526
12.08 207.674362
12.10 220.833389
12.12 232.243576
12.14 237.896927
12.16 230.678848
12.18 247.380264
12.20 248.42247
12.22 260.145142
12.24 265.796783
12.26 253.651306
12.28 233.841721
12.30 240.126801
12.32 248.061752
12.34 258.459381
12.36 254.905777
12.38 246.576828
12.40 234.305374
12.42 248.453201
12.44 251.444458
12.46 262.097198
12.48 252.856415
12.50 234.696838
12.52 230.577927
12.54 239.873871
12.56 233.956985
12.58 219.363266
12.60 242.97728
12.62 248.782318
12.64 263.887054
12.66 247.152725
12.68 245.068665
12.70 250.794235
12.72 246.833282
12.74 240.666824
12.76 246.868317
12.78 245.647293
12.80 249.900192
12.82 264.695129
12.84 257.597717
12.86 250.696381
12.88 250.689438
12.90 258.925323
12.92 255.86731
12.94 261.253662
12.96 244.702209
12.98 248.584457
13.00 264.84494
13.02 259.634979
13.04 258.203705
13.06 263.725433
13.08 248.71875
13.10 257.448975
13.12 258.869843
13.14 242.77475
13.16 254.090164
13.18 263.290985
13.20 255.662964
13.22 252.484894
13.24 258.951447
13.26 254.892792
13.28 259.200745
13.30 253.347595
13.32 248.679749
13.34 254.196457
13.36 261.805878
13.38 262.440857
13.40 256.33609
13.42 265.235779
13.44 245.552307
13.46 242.979935
13.48 247.327011
13.50 244.746429
13.52 259.068665
13.54 263.95285
13.56 267.078827
13.58 270.731323
13.60 272.230469
13.62 271.346954
13.64 260.641174
13.66 259.807648
13.68 273.647247
13.70 273.316925
13.72 252.47226
13.74 245.450104
13.76 260.890656
13.78 271.34079
13.80 265.894012
13.82 267.245117
13.84 265.432922
13.86 277.811371
13.88 275.715851
13.90 259.6716
13.92 267.212585
13.94 280.338623
13.96 279.530609
13.98 299.265564
14.00 289.679657
14.02 271.356415
14.04 281.28418
14.06 294.844238
14.08 280.49646
14.10 289.582397
14.12 295.074036
14.14 306.625122
14.16 310.512115
14.18 296.800507
14.20 292.411285
14.22 301.530853
14.24 308.931854
14.26 313.112762
14.28 303.650146
14.30 299.766083
14.32 301.281311
14.34 308.377869
14.36 321.037292
14.38 321.641357
14.40 306.67749
14.42 295.742584
14.44 309.433014
14.46 311.005096
14.48 302.905731
14.50 309.25354
14.52 312.259857
14.54 293.826874
14.56 295.11676
14.58 313.116119
14.60 279.821838
14.62 285.955475
14.64 294.231689
14.66 286.967163
14.68 285.721741
14.70 278.659332
14.72 288.075623
14.74 299.869659
14.76 319.045471
14.78 314.885193
14.80 305.57843
14.82 300.347015
14.84 298.757507
14.86 292.959106
14.88 305.777466
14.90 305.673187
14.92 291.631287
14.94 299.962433
14.96 294.760468
14.98 292.892914
15.00 300.120361
15.02 290.742493
15.04 306.166046
15.06 309.008636
15.08 303.151581
15.10 284.0112
15.12 280.474609
15.14 290.991028
15.16 286.70813
15.18 299.02713
15.20 306.783112
15.22 288.001373
15.24 293.850586
15.26 295.453003
15.28 314.697998
15.30 300.999023
15.32 290.23172
15.34 292.192078
15.36 299.967529
15.38 300.882629
15.40 302.773407
15.42 310.875458
15.44 293.874084
15.46 291.027924
15.48 304.249512
15.50 297.6987
15.52 298.285004
15.54 288.402832
15.56 287.834473
15.58 291.469727
15.60 308.16568
15.62 298.59726
15.64 281.852417
15.66 282.34668
15.68 291.700714
15.70 308.919769
15.72 301.718048
15.74 296.749847
15.76 286.396942
15.78 294.660492
15.80 310.334991
15.82 298.093628
15.84 285.107971
15.86 289.9953
15.88 307.40329
15.90 314.747986
15.92 307.830658
15.94 288.634155
15.96 294.756775
15.98 297.926361
16.00 308.761475
16.02 313.619659
16.04 319.324921
16.06 305.834869
16.08 298.422089
16.10 304.693695
16.12 311.212036
16.14 309.312164
16.16 301.282501
16.18 319.019623
16.20 311.689331
16.22 310.867523
16.24 310.069641
16.26 299.612701
16.28 295.558472
16.30 297.849976
16.32 298.925171
16.34 299.42218
16.36 291.702515
16.38 311.513458
16.40 314.741119
16.42 310.190643
16.44 299.969055
16.46 299.850769
16.48 292.997498
16.50 293.822906
16.52 307.233276
16.54 309.983307
16.56 304.18045
16.58 309.300903
16.60 320.060242
16.62 339.217346
16.64 332.564667
16.66 327.632385
16.68 328.065765
16.70 322.174469
16.72 314.068481
16.74 311.611481
16.76 303.923218
16.78 304.625427
16.80 312.096313
16.82 305.337677
16.84 332.450317
16.86 329.140808
16.88 312.579071
16.90 326.663177
16.92 318.502289
16.94 315.713837
16.96 323.556152
16.98 312.983459
17.00 312.0578
17.02 313.583527
17.04 325.918396
17.06 334.790771
17.08 327.294342
17.10 328.388275
17.12 327.622314
17.14 321.063538
17.16 319.479797
17.18 333.792542
17.20 325.02478
17.22 315.855591
17.24 319.886322
17.26 333.954071
17.28 336.255707
17.30 337.66095
17.32 331.403992
17.34 323.412445
17.36 323.000946
17.38 336.277985
17.40 333.752167
17.42 321.595978
17.44 331.226349
17.46 342.313416
17.48 326.796326
17.50 333.887787
17.52 341.107941
17.54 345.248199
17.56 347.961609
17.58 326.941284
17.60 326.033813
17.62 333.717743
17.64 338.354706
17.66 329.997681
17.68 352.288483
17.70 357.79187
17.72 340.478973
17.74 355.645538
17.76 361.183533
17.78 351.292725
17.80 335.245789
17.82 345.1633
17.84 352.655121
17.86 344.725708
17.88 339.647064
17.90 340.593567
17.92 356.213135
17.94 350.674347
17.96 363.291351
17.98 355.262268
18.00 353.928131
18.02 356.332245
18.04 349.212524
18.06 348.333374
18.08 347.277008
18.10 349.196838
18.12 346.035065
18.14 363.271454
18.16 345.778687
18.18 341.344391
18.20 352.269623
18.22 350.160065
18.24 349.344177
18.26 341.488892
18.28 354.410461
18.30 354.374054
18.32 366.097412
18.34 365.22998
18.36 363.438965
18.38 377.805634
18.40 376.955292
18.42 366.873199
18.44 353.968323
18.46 351.344116
18.48 357.099152
18.50 352.781433
18.52 355.102844
18.54 356.992523
18.56 344.903625
18.58 348.189362
18.60 361.845215
18.62 374.315582
18.64 372.034363
18.66 374.097382
18.68 385.650391
18.70 385.108215
18.72 387.909119
18.74 383.446411
18.76 382.75354
18.78 374.925171
18.80 389.479156
18.82 385.98465
18.84 385.017822
18.86 384.743317
18.88 385.813263
18.90 380.630188
18.92 381.007629
18.94 379.229645
18.96 367.326111
18.98 364.176666
19.00 373.479431
19.02 387.928101
19.04 388.96994
19.06 382.203888
19.08 382.440948
19.10 395.381989
19.12 380.69986
19.14 384.141205
19.16 392.54892
19.18 400.39624
19.20 397.629181
19.22 387.95752
19.24 383.181854
19.26 371.81427
19.28 392.675354
19.30 402.952942
19.32 403.181549
19.34 391.538727
19.36 418.280334
19.38 416.620209
19.40 404.51297
19.42 404.852966
19.44 412.829559
19.46 417.75
19.48 413.919464
19.50 391.088257
19.52 399.084656
19.54 398.704773
19.56 401.161926
19.58 409.967133
19.60 409.365265
19.62 408.377716
19.64 409.108185
19.66 413.401245
19.68 398.448364
19.70 410.677185
19.72 422.796692
19.74 438.930817
19.76 433.565155
19.78 442.620575
19.80 434.629181
19.82 423.65802
19.84 423.670471
19.86 437.708435
19.88 427.104462
19.90 420.718658
19.92 420.22226
19.94 426.524414
19.96 423.720673
19.98 421.111694
20.00 428.711151
20.02 426.907837
20.04 430.771973
20.06 437.608978
20.08 446.342529
20.10 444.303802
20.12 456.759644
20.14 450.834229
20.16 445.394867
20.18 458.067383
20.20 475.726257
20.22 451.923981
20.24 441.935852
20.26 452.297577
20.28 447.089355
20.30 450.361816
20.32 460.947144
20.34 464.74115
20.36 468.883728
20.38 459.733826
20.40 455.938171
20.42 448.734528
20.44 454.642975
20.46 457.105865
20.48 464.823364
20.50 456.184113
20.52 452.213135
20.54 465.483521
20.56 473.584015
20.58 464.996582
20.60 449.478424
20.62 466.280151
20.64 461.376801
20.66 466.517273
20.68 482.794525
20.70 464.749084
20.72 471.247711
20.74 491.144318
20.76 477.931763
20.78 469.908691
20.80 471.955139
20.82 473.643524
20.84 474.039764
20.86 490.146271
20.88 488.462158
20.90 472.515442
20.92 478.582916
20.94 473.324005
20.96 474.495361
20.98 492.14035
21.00 494.761932
21.02 497.261932
21.04 496.647919
21.06 500.768127
21.08 482.953583
21.10 478.861725
21.12 461.611267
21.14 482.970154
21.16 508.784241
21.18 511.06662
21.20 502.692322
21.22 498.281006
21.24 506.883759
21.26 501.305389
21.28 498.610199
21.30 494.778351
21.32 504.455017
21.34 497.195129
21.36 497.437195
21.38 497.973633
21.40 497.197601
21.42 485.332916
21.44 503.440063
21.46 508.466064
21.48 500.874481
21.50 486.05542
21.52 493.509766
21.54 489.756744
21.56 500.323883
21.58 512.851624
21.60 512.729126
21.62 493.653015
21.64 490.748352
21.66 499.4599
21.68 498.598206
21.70 503.109375
21.72 509.635498
21.74 486.601257
21.76 495.139099
21.78 500.370178
21.80 505.007324
21.82 495.957397
21.84 499.065216
21.86 508.969208
21.88 506.953857
21.90 505.234467
21.92 505.800476
21.94 503.298218
21.96 515.793274
21.98 519.971252
22.00 517.995667
22.02 510.084595
22.04 508.367035
22.06 519.88269
22.08 505.830872
22.10 494.718903
22.12 484.996002
22.14 519.645081
22.16 514.986633
22.18 511.592285
22.20 524.284363
22.22 530.10553
22.24 516.761047
22.26 516.919617
22.28 512.415649
22.30 513.535645
22.32 518.437805
22.34 517.663757
22.36 522.644714
22.38 518.668701
22.40 511.581665
22.42 520.472656
22.44 517.761536
22.46 505.065247
22.48 516.006042
22.50 523.297974
22.52 529.804626
22.54 532.213013
22.56 522.297546
22.58 528.410767
22.60 531.267029
22.62 551.246216
22.64 537.944336
22.66 527.286011
22.68 529.115845
22.70 545.328796
22.72 539.484009
22.74 543.245972
22.76 537.490051
22.78 537.688721
22.80 536.922913
22.82 545.128784
22.84 527.831177
22.86 533.836731
22.88 529.819397
22.90 528.425781
22.92 525.828552
22.94 533.908997
22.96 534.420654
22.98 542.486206
23.00 535.501038
23.02 531.696655
23.04 545.409485
23.06 543.456238
23.08 539.743286
23.10 550.67865
23.12 540.914246
23.14 542.164185
23.16 518.392517
23.18 518.856201
23.20 535.367676
23.22 545.81488
23.24 543.809143
23.26 547.98114
23.28 552.136841
23.30 550.642273
23.32 545.088196
23.34 539.891785
23.36 536.607239
23.38 546.217529
23.40 556.28418
23.42 537.278748
23.44 541.479004
23.46 545.886292
23.48 546.506409
23.50 535.390198
23.52 558.775635
23.54 572.953613
23.56 568.019226
23.58 545.784363
23.60 549.11792
23.62 560.442871
23.64 553.283813
23.66 548.039429
23.68 565.987854
23.70 559.574768
23.72 554.141357
23.74 548.7901
23.76 544.827393
23.78 543.602112
23.80 551.369934
23.82 552.750244
23.84 560.382263
23.86 556.382324
23.88 542.697937
23.90 547.298401
23.92 543.287476
23.94 544.456238
23.96 558.428223
23.98 547.946594
24.00 553.335205
24.02 567.446411
24.04 567.498901
24.06 565.317017
24.08 554.963257
24.10 564.330139
24.12 563.558716
24.14 550.514404
24.16 546.527588
24.18 556.696655
24.20 560.962708
24.22 578.71405
24.24 587.298462
24.26 572.675232
24.28 561.545349
24.30 571.230408
24.32 562.731445
24.34 555.413818
24.36 548.402039
24.38 553.833862
24.40 560.80072
24.42 575.249695
24.44 572.336304
24.46 569.312256
24.48 583.746704
24.50 583.25769
24.52 568.17804
24.54 562.761719
24.56 559.344055
24.58 568.720154
24.60 558.072266
24.62 575.728577
24.64 570.336487
24.66 573.897156
24.68 573.865234
24.70 569.31958
24.72 558.018616
24.74 574.040405
24.76 580.279358
24.78 585.065308
24.80 571.41156
24.82 584.692566
24.84 575.256042
24.86 569.543152
24.88 571.993164
24.90 570.705566
24.92 571.342773
24.94 565.993347
24.96 557.377197
24.98 565.654541
25.00 573.931274
25.02 571.646606
25.04 564.224304
25.06 561.844971
25.08 556.845886
25.10 556.366638
25.12 571.08551
25.14 569.997986
25.16 556.582825
25.18 553.015381
25.20 557.026123
25.22 565.307007
25.24 573.166077
25.26 563.839233
25.28 554.776855
25.30 564.858826
25.32 561.498352
25.34 566.23645
25.36 561.841675
25.38 571.27179
25.40 567.631348
25.42 569.009949
25.44 562.367859
25.46 570.949646
25.48 584.566162
25.50 581.781372
25.52 576.076477
25.54 574.970154
25.56 564.251831
25.58 564.004395
25.60 561.278687
25.62 571.84729
25.64 581.714905
25.66 574.624207
25.68 575.596191
25.70 573.357483
25.72 578.30542
25.74 567.674988
25.76 553.119934
25.78 561.88324
25.80 562.454895
25.82 561.325562
25.84 573.469299
25.86 580.55188
25.88 578.27655
25.90 580.032043
25.92 577.136414
25.94 556.965515
25.96 562.515442
25.98 578.047546
26.00 572.145752
26.02 561.722412
26.04 571.953125
26.06 571.496033
26.08 554.768188
26.10 549.239685
26.12 561.742615
26.14 569.030029
26.16 570.175415
26.18 565.028931
26.20 574.096985
26.22 574.592041
26.24 582.0495
26.26 582.524536
26.28 555.748169
26.30 567.042236
26.32 562.422241
26.34 568.110168
26.36 567.75
26.38 565.172729
26.40 563.06604
26.42 564.521973
26.44 565.869873
26.46 564.025635
26.48 578.690491
26.50 560.698486
26.52 554.476318
26.54 573.776489
26.56 568.413269
26.58 551.99054
26.60 543.79126
26.62 555.285645
26.64 572.951416
26.66 570.638062
26.68 566.910339
26.70 583.07959
26.72 576.25177
26.74 571.183105
26.76 561.269714
26.78 576.28064
26.80 562.602478
26.82 555.875854
26.84 563.798645
26.86 562.618469
26.88 556.727539
26.90 553.191101
26.92 569.100708
26.94 579.259583
26.96 575.952087
26.98 588.400696
27.00 588.048645
27.02 571.55304
27.04 568.631592
27.06 554.166382
27.08 558.422302
27.10 566.384583
27.12 570.130127
27.14 566.336914
27.16 563.704468
27.18 564.2453
27.20 565.91394
27.22 577.456238
27.24 581.344421
27.26 565.333374
27.28 568.139709
27.30 571.274963
27.32 574.65686
27.34 564.343506
27.36 541.560059
27.38 545.361328
27.40 562.444336
27.42 556.812378
27.44 562.571289
27.46 563.910034
27.48 561.849182
27.50 568.271301
27.52 565.563477
27.54 552.998108
27.56 552.121887
27.58 560.770386
27.60 563.011536
27.62 560.748779
27.64 553.22821
27.66 552.61322
27.68 558.984009
27.70 562.981384
27.72 552.359741
27.74 546.097473
27.76 560.552551
27.78 539.235962
27.80 549.510681
27.82 575.019531
27.84 566.146484
27.86 560.680237
27.88 544.666321
27.90 552.514465
27.92 572.977234
27.94 568.963989
27.96 581.487244
27.98 587.651184
28.00 580.021667
28.02 567.945679
28.04 574.498657
28.06 586.24884
28.08 559.897095
28.10 561.447449
28.12 570.065979
28.14 545.696838
28.16 547.951599
28.18 560.740845
28.20 557.340332
28.22 546.424072
28.24 557.006226
28.26 567.005859
28.28 566.619446
28.30 562.664551
28.32 560.932678
28.34 585.239624
28.36 574.899902
28.38 565.455139
28.40 576.947693
28.42 577.305725
28.44 575.038086
28.46 560.198914
28.48 558.022644
28.50 555.146057
28.52 555.257813
28.54 557.397461
28.56 567.063416
28.58 564.353271
28.60 562.086548
28.62 568.467407
28.64 570.486877
28.66 551.909485
28.68 567.049988
28.70 566.027222
28.72 576.376648
28.74 573.49585
28.76 565.704041
28.78 576.73822
28.80 577.7453
28.82 562.159607
28.84 560.647766
28.86 568.675659
28.88 564.036133
28.90 554.887268
28.92 552.688232
28.94 562.939819
28.96 556.120972
28.98 557.085266
29.00 559.463806
29.02 568.754578
29.04 579.81604
29.06 575.225098
29.08 560.594482
29.10 551.265381
29.12 557.701843
29.14 560.688904
29.16 563.344543
29.18 560.644592
29.20 565.465515
29.22 573.660095
29.24 563.140686
29.26 540.824341
29.28 560.599182
29.30 562.171082
29.32 559.49762
29.34 562.035889
29.36 557.233887
29.38 557.096985
29.40 546.404053
29.42 554.758118
29.44 551.750061
29.46 545.20813
29.48 540.074524
29.50 555.272949
29.52 560.327026
29.54 562.012512
29.56 547.767273
29.58 541.499634
29.60 534.574646
29.62 525.487854
29.64 527.198914
29.66 532.894836
29.68 545.13562
29.70 545.37262
29.72 544.521729
29.74 525.718811
29.76 527.198059
29.78 550.097534
29.80 557.467468
29.82 532.638733
29.84 519.785217
29.86 512.880371
29.88 504.675476
29.90 533.393494
29.92 533.549866
29.94 528.718689
29.96 534.568115
29.98 537.761108
30.00 526.304138
30.02 527.127136
30.04 529.826111
30.06 532.55835
30.08 522.983826
30.10 515.319824
30.12 516.516541
30.14 532.837341
30.16 539.219116
30.18 530.494385
30.20 525.460876
30.22 530.387085
30.24 519.111023
30.26 513.78064
30.28 517.500427
30.30 509.069122
30.32 507.478485
30.34 529.244873
30.36 526.346313
30.38 508.941528
30.40 519.813049
30.42 509.020416
30.44 518.486328
30.46 526.278809
30.48 512.472534
30.50 514.299622
30.52 537.672974
30.54 518.977905
30.56 506.640991
30.58 496.069183
30.60 505.296875
30.62 508.360229
30.64 511.638519
30.66 503.964783
30.68 493.454559
30.70 492.860382
30.72 502.838409
30.74 533.731812
30.76 529.320435
30.78 505.6698
30.80 499.245361
30.82 516.168396
30.84 505.015869
30.86 507.06662
30.88 494.60199
30.90 485.267456
30.92 491.39328
30.94 487.35379
30.96 498.952942
30.98 503.254578
31.00 510.98526
31.02 500.668518
31.04 491.054474
31.06 486.391144
31.08 485.579773
31.10 492.168488
31.12 486.414978
31.14 492.855774
31.16 477.689331
31.18 487.24411
31.20 489.656372
31.22 484.250641
31.24 481.712494
31.26 482.631653
31.28 475.061737
31.30 473.687683
31.32 482.70813
31.34 489.316528
31.36 501.235596
31.38 486.715363
31.40 474.892517
31.42 497.848877
31.44 501.66449
31.46 484.273071
31.48 475.757629
31.50 470.399841
31.52 478.202728
31.54 474.650635
31.56 478.951782
31.58 469.458191
31.60 477.691742
31.62 468.12915
31.64 451.440155
31.66 458.295654
31.68 464.507629
31.70 470.915344
31.72 470.679016
31.74 473.951111
31.76 476.043396
31.78 470.9328
31.80 476.842285
31.82 476.575836
