!@!!GADDS PLOTSO FILE: Chi integration type
!@!!Title/SampleName: ML_MAPbX3
!@!!User: NREL
!@!!Site: NREL SERF C211; SN 2510
!@!!Frame: 081022_MLProject_000_013.gfrm
!@!!Wavelengths    1.54184   1.54056   1.54439
!@!!Frame angles: 2Theta: 28.000 Omega: 5.000 Phi: 0.000 Chi: 90.000
!@!!Integration range: 2Theta: 10.000 to 41.100  Gamma: -120.400 to -60.400
!@!!Integration method: bin normalized
!@!N
!@!SS
!@!M
!@!L 0.0 0.0 0.0 0.0
!@!XDegrees
!@!YCounts
10.00 202.2836
10.01 194.784058
10.02 191.907913
10.03 193.267471
10.04 191.116776
10.05 192.207199
10.06 197.214523
10.07 200.90686
10.08 202.885956
10.09 199.328506
10.10 197.986511
10.11 190.854309
10.12 182.730362
10.13 183.862534
10.14 190.63031
10.15 191.995834
10.16 196.180252
10.17 199.415375
10.18 201.463562
10.19 206.363724
10.20 199.773544
10.21 203.856186
10.22 203.480194
10.23 193.403641
10.24 194.454224
10.25 199.040009
10.26 197.74176
10.27 197.937164
10.28 198.784714
10.29 201.719467
10.30 206.307831
10.31 205.674454
10.32 198.448547
10.33 197.635345
10.34 200.8237
10.35 197.733719
10.36 195.112427
10.37 189.067032
10.38 194.514267
10.39 203.738571
10.40 198.596786
10.41 191.438766
10.42 192.344147
10.43 191.394409
10.44 192.827621
10.45 202.019058
10.46 197.384186
10.47 197.013641
10.48 203.3461
10.49 204.736923
10.50 202.747131
10.51 197.595947
10.52 194.851105
10.53 199.334137
10.54 207.187241
10.55 205.806519
10.56 198.364456
10.57 198.602844
10.58 211.776306
10.59 210.432251
10.60 202.37912
10.61 202.029816
10.62 204.811203
10.63 210.5354
10.64 206.158371
10.65 198.664108
10.66 202.374481
10.67 206.699982
10.68 210.682709
10.69 215.552628
10.70 221.029022
10.71 221.257248
10.72 217.366302
10.73 214.434219
10.74 199.870651
10.75 190.570938
10.76 196.355164
10.77 202.936798
10.78 202.310318
10.79 204.937408
10.80 208.791367
10.81 203.459366
10.82 200.267746
10.83 200.593307
10.84 201.011383
10.85 205.121185
10.86 207.512894
10.87 208.051834
10.88 211.256149
10.89 208.80217
10.90 201.23204
10.91 204.272507
10.92 209.083908
10.93 202.786392
10.94 210.042999
10.95 222.480942
10.96 219.557587
10.97 213.358536
10.98 211.310425
10.99 215.827591
11.00 216.745621
11.01 219.420105
11.02 217.333145
11.03 204.821335
11.04 201.635208
11.05 206.182175
11.06 211.451416
11.07 217.012558
11.08 218.131882
11.09 215.618698
11.10 209.482117
11.11 208.0923
11.12 213.835236
11.13 218.052551
11.14 226.383545
11.15 224.454788
11.16 222.029266
11.17 226.532303
11.18 220.452637
11.19 214.552887
11.20 209.447739
11.21 208.900024
11.22 212.901932
11.23 211.100952
11.24 212.333694
11.25 220.096344
11.26 227.319748
11.27 218.451538
11.28 206.932571
11.29 208.914368
11.30 207.508575
11.31 210.091568
11.32 212.478592
11.33 211.540039
11.34 213.23912
11.35 214.073196
11.36 214.919479
11.37 219.543213
11.38 221.100281
11.39 218.610519
11.40 210.990311
11.41 213.637589
11.42 222.550156
11.43 222.421661
11.44 231.221695
11.45 231.506287
11.46 222.290955
11.47 217.669601
11.48 222.383957
11.49 227.328445
11.50 233.438934
11.51 236.340805
11.52 233.666779
11.53 234.187027
11.54 230.376816
11.55 228.29866
11.56 226.24884
11.57 223.902786
11.58 220.115585
11.59 212.947586
11.60 208.007004
11.61 213.059769
11.62 216.96257
11.63 216.036453
11.64 217.772736
11.65 227.287186
11.66 238.19751
11.67 233.450684
11.68 228.754089
11.69 229.413712
11.70 230.456329
11.71 236.308594
11.72 232.942856
11.73 218.202942
11.74 216.082031
11.75 221.252426
11.76 221.009247
11.77 222.584534
11.78 229.382675
11.79 234.514313
11.80 235.92453
11.81 237.217743
11.82 239.029587
11.83 234.090698
11.84 233.213913
11.85 240.033752
11.86 234.265854
11.87 231.511475
11.88 234.695572
11.89 235.098724
11.90 238.866104
11.91 239.984207
11.92 236.71637
11.93 234.589401
11.94 230.428879
11.95 230.988632
11.96 235.540283
11.97 235.947021
11.98 232.576447
11.99 227.165359
12.00 223.131195
12.01 223.930527
12.02 229.272217
12.03 228.291687
12.04 227.374008
12.05 232.124283
12.06 240.531387
12.07 246.686661
12.08 247.432022
12.09 250.097
12.10 254.844345
12.11 256.891235
12.12 254.540375
12.13 248.806824
12.14 247.329285
12.15 250.116623
12.16 252.311157
12.17 249.05838
12.18 238.088837
12.19 236.972733
12.20 248.262924
12.21 250.069061
12.22 247.005341
12.23 248.442307
12.24 248.844421
12.25 255.851105
12.26 261.133179
12.27 251.594467
12.28 245.152863
12.29 244.467163
12.30 253.726913
12.31 254.866608
12.32 248.751068
12.33 252.415268
12.34 263.123444
12.35 272.901825
12.36 272.546997
12.37 267.246185
12.38 262.053558
12.39 259.209747
12.40 253.895416
12.41 254.425964
12.42 273.035126
12.43 282.237091
12.44 281.645142
12.45 274.092529
12.46 272.657257
12.47 275.013519
12.48 276.780609
12.49 275.435394
12.50 273.238983
12.51 276.60968
12.52 275.659332
12.53 273.430511
12.54 269.552246
12.55 273.37146
12.56 273.005737
12.57 268.869843
12.58 273.92749
12.59 280.924988
12.60 279.503082
12.61 284.222168
12.62 285.70993
12.63 281.378754
12.64 284.408813
12.65 283.40625
12.66 284.252258
12.67 284.955017
12.68 273.376251
12.69 273.066742
12.70 275.777679
12.71 271.030823
12.72 276.257263
12.73 281.784729
12.74 278.700836
12.75 277.502594
12.76 279.276062
12.77 275.231079
12.78 268.718445
12.79 267.937073
12.80 277.094086
12.81 280.870331
12.82 274.119598
12.83 261.856293
12.84 261.763794
12.85 260.74881
12.86 261.699005
12.87 274.113495
12.88 272.66394
12.89 263.959686
12.90 263.096832
12.91 263.135834
12.92 261.214172
12.93 257.004944
12.94 254.251038
12.95 255.181122
12.96 256.360321
12.97 262.350647
12.98 271.791016
12.99 273.139618
13.00 274.068512
13.01 268.976654
13.02 267.003418
13.03 264.892242
13.04 259.51712
13.05 264.624847
13.06 268.131165
13.07 263.83551
13.08 263.335052
13.09 267.259766
13.10 262.425568
13.11 262.317993
13.12 269.337067
13.13 265.039398
13.14 254.76857
13.15 250.92012
13.16 248.441574
13.17 251.024948
13.18 260.420593
13.19 266.968872
13.20 273.733704
13.21 276.741577
13.22 269.993134
13.23 265.215759
13.24 263.097321
13.25 255.973114
13.26 256.639557
13.27 257.715576
13.28 256.436371
13.29 260.601227
13.30 258.924866
13.31 257.767609
13.32 259.296356
13.33 263.804077
13.34 272.212494
13.35 274.52951
13.36 275.201874
13.37 268.302704
13.38 266.247284
13.39 277.448761
13.40 273.060669
13.41 263.934204
13.42 261.096832
13.43 260.651367
13.44 257.63327
13.45 261.717194
13.46 264.500702
13.47 263.959106
13.48 266.288971
13.49 264.035339
13.50 271.431763
13.51 272.14505
13.52 268.438416
13.53 268.973938
13.54 268.773224
13.55 273.027008
13.56 266.108826
13.57 263.154663
13.58 272.748688
13.59 278.491364
13.60 279.679932
13.61 268.209229
13.62 264.700012
13.63 267.52478
13.64 266.824005
13.65 264.00119
13.66 262.591309
13.67 269.533844
13.68 272.749237
13.69 273.752686
13.70 270.537415
13.71 271.895935
13.72 278.508972
13.73 282.990021
13.74 283.265594
13.75 288.906281
13.76 293.123749
13.77 287.57486
13.78 285.18985
13.79 282.010864
13.80 278.833313
13.81 276.052826
13.82 274.689545
13.83 274.304779
13.84 280.172974
13.85 280.54007
13.86 275.75705
13.87 285.168304
13.88 296.958344
13.89 295.07019
13.90 297.164459
13.91 302.949036
13.92 297.137146
13.93 292.442474
13.94 294.982941
13.95 290.093231
13.96 292.816315
13.97 301.5867
13.98 303.429932
13.99 305.64328
14.00 310.107849
14.01 314.403595
14.02 321.265961
14.03 328.845123
14.04 327.002808
14.05 316.425049
14.06 314.968384
14.07 319.622803
14.08 320.960236
14.09 319.940918
14.10 325.785706
14.11 326.670013
14.12 325.477966
14.13 340.469391
14.14 347.054077
14.15 352.479309
14.16 358.765045
14.17 359.554779
14.18 351.883148
14.19 354.998718
14.20 367.093628
14.21 372.803711
14.22 377.317383
14.23 384.080414
14.24 398.805878
14.25 405.784241
14.26 412.076355
14.27 416.282501
14.28 418.048737
14.29 426.13797
14.30 429.030396
14.31 422.857758
14.32 438.431366
14.33 445.323761
14.34 458.066101
14.35 477.550171
14.36 483.760406
14.37 485.624695
14.38 497.381439
14.39 502.145966
14.40 505.575134
14.41 528.048523
14.42 544.357483
14.43 553.853882
14.44 562.54657
14.45 564.816956
14.46 573.493774
14.47 589.309875
14.48 593.687256
14.49 608.514221
14.50 620.038757
14.51 642.797729
14.52 658.267456
14.53 680.308777
14.54 687.116943
14.55 693.814453
14.56 699.765381
14.57 700.574646
14.58 707.706665
14.59 723.756104
14.60 744.032349
14.61 747.741272
14.62 757.964478
14.63 769.424011
14.64 786.987915
14.65 798.31897
14.66 811.481995
14.67 818.432068
14.68 818.059631
14.69 812.867249
14.70 827.798645
14.71 853.718689
14.72 884.276672
14.73 889.013428
14.74 885.490112
14.75 897.688171
14.76 912.141968
14.77 916.165833
14.78 926.761719
14.79 936.573364
14.80 949.360718
14.81 970.184082
14.82 972.83429
14.83 975.037354
14.84 976.386902
14.85 992.860596
14.86 1012.254883
14.87 1020.00824
14.88 1020.090881
14.89 1023.234192
14.90 1020.995178
14.91 1029.428223
14.92 1029.060791
14.93 1024.758057
14.94 1011.053101
14.95 995.110901
14.96 999.103943
14.97 996.807861
14.98 981.858826
14.99 982.147522
15.00 950.852295
15.01 931.891602
15.02 920.839661
15.03 910.639526
15.04 886.700989
15.05 861.857422
15.06 821.691589
15.07 805.924988
15.08 796.051453
15.09 775.2901
15.10 755.935425
15.11 736.132874
15.12 710.042542
15.13 683.030579
15.14 670.358887
15.15 647.032043
15.16 628.647583
15.17 594.208374
15.18 574.714905
15.19 553.994202
15.20 546.768799
15.21 530.879639
15.22 517.359558
15.23 507.206879
15.24 483.454407
15.25 468.135559
15.26 461.616333
15.27 454.282959
15.28 448.47995
15.29 431.616028
15.30 403.667847
15.31 394.013763
15.32 398.853424
15.33 402.34375
15.34 400.530884
15.35 395.490448
15.36 384.902039
15.37 378.52774
15.38 369.715942
15.39 370.225098
15.40 369.478821
15.41 364.850677
15.42 364.383057
15.43 358.789764
15.44 353.464783
15.45 359.559479
15.46 355.002502
15.47 341.007385
15.48 341.148407
15.49 343.742371
15.50 337.328766
15.51 332.8927
15.52 332.691223
15.53 320.478088
15.54 318.954834
15.55 313.630096
15.56 311.719757
15.57 322.650818
15.58 319.176483
15.59 311.706238
15.60 313.799591
15.61 315.934875
15.62 326.43869
15.63 339.132019
15.64 337.175232
15.65 328.824677
15.66 319.903687
15.67 316.902679
15.68 320.008362
15.69 317.887939
15.70 309.050354
15.71 308.500336
15.72 311.273804
15.73 310.83786
15.74 306.416901
15.75 304.867645
15.76 309.437653
15.77 311.84317
15.78 312.237091
15.79 317.299744
15.80 323.461609
15.81 320.680328
15.82 311.902252
15.83 305.810181
15.84 304.515442
15.85 312.104401
15.86 314.66394
15.87 315.601013
15.88 317.072876
15.89 319.095734
15.90 320.001801
15.91 307.231415
15.92 297.221924
15.93 302.67038
15.94 309.229004
15.95 310.279663
15.96 311.463501
15.97 311.813904
15.98 310.649719
15.99 303.97998
16.00 299.28244
16.01 295.662537
16.02 290.237335
16.03 292.135315
16.04 299.735596
16.05 307.392975
16.06 315.245667
16.07 316.03894
16.08 316.719482
16.09 319.150452
16.10 314.306091
16.11 314.44519
16.12 321.711548
16.13 327.945953
16.14 323.481384
16.15 316.005859
16.16 309.413635
16.17 309.402405
16.18 311.367523
16.19 313.505646
16.20 313.453186
16.21 310.515869
16.22 310.95047
16.23 310.30423
16.24 305.778076
16.25 300.326141
16.26 302.906189
16.27 301.330139
16.28 296.006653
16.29 291.268921
16.30 298.082367
16.31 309.386963
16.32 306.188446
16.33 300.954956
16.34 303.532196
16.35 308.680908
16.36 313.566528
16.37 318.70694
16.38 319.310822
16.39 321.606628
16.40 326.728424
16.41 319.733459
16.42 312.004242
16.43 321.077911
16.44 322.725037
16.45 318.014709
16.46 319.017456
16.47 321.26828
16.48 322.434784
16.49 323.156555
16.50 320.748779
16.51 312.98761
16.52 312.979034
16.53 318.194702
16.54 319.831451
16.55 316.474579
16.56 316.238037
16.57 309.10318
16.58 302.243469
16.59 313.838715
16.60 321.151794
16.61 319.972137
16.62 322.624847
16.63 331.108551
16.64 336.924866
16.65 334.831329
16.66 331.852203
16.67 327.120453
16.68 321.43631
16.69 320.802795
16.70 327.138184
16.71 332.226501
16.72 332.438904
16.73 333.639008
16.74 330.377502
16.75 323.777924
16.76 320.624878
16.77 319.027527
16.78 326.768463
16.79 330.244385
16.80 331.901703
16.81 336.829956
16.82 339.979309
16.83 336.789307
16.84 327.649384
16.85 326.737915
16.86 327.267212
16.87 323.720612
16.88 324.27063
16.89 323.3685
16.90 322.738464
16.91 323.015991
16.92 323.526855
16.93 322.613861
16.94 327.970551
16.95 328.872986
16.96 322.411285
16.97 324.562958
16.98 327.719757
16.99 325.667084
17.00 328.247986
17.01 333.388306
17.02 339.800934
17.03 341.836609
17.04 338.954346
17.05 340.168335
17.06 337.530457
17.07 327.823914
17.08 326.66272
17.09 331.347046
17.10 330.571777
17.11 329.571014
17.12 326.91922
17.13 323.630737
17.14 323.811676
17.15 331.225922
17.16 333.96759
17.17 331.153412
17.18 333.072784
17.19 330.271606
17.20 327.165039
17.21 324.8974
17.22 326.389801
17.23 330.222931
17.24 329.641663
17.25 332.761749
17.26 335.848999
17.27 336.016785
17.28 332.770935
17.29 334.750946
17.30 342.601166
17.31 348.05426
17.32 343.927856
17.33 339.515808
17.34 339.768982
17.35 337.060425
17.36 334.4245
17.37 339.892639
17.38 340.40152
17.39 337.119659
17.40 340.886169
17.41 344.412415
17.42 343.445618
17.43 353.583069
17.44 361.788116
17.45 362.463898
17.46 358.238403
17.47 345.62204
17.48 335.161224
17.49 335.722351
17.50 339.438934
17.51 353.644989
17.52 356.677917
17.53 346.571442
17.54 346.297028
17.55 340.777008
17.56 331.275391
17.57 335.965637
17.58 350.565948
17.59 360.237305
17.60 356.155029
17.61 351.72052
17.62 354.88559
17.63 358.810211
17.64 358.200348
17.65 355.427612
17.66 355.602203
17.67 356.798462
17.68 352.4104
17.69 348.703705
17.70 345.703461
17.71 344.094696
17.72 348.74118
17.73 348.68103
17.74 342.800079
17.75 342.348236
17.76 349.756561
17.77 356.459167
17.78 356.949799
17.79 356.107147
17.80 360.464935
17.81 363.286621
17.82 360.295959
17.83 360.284851
17.84 360.610931
17.85 351.949249
17.86 349.106354
17.87 352.669525
17.88 352.577026
17.89 349.444183
17.90 356.103821
17.91 359.156769
17.92 351.53064
17.93 355.174469
17.94 364.106506
17.95 357.016968
17.96 345.718567
17.97 345.363922
17.98 344.871918
17.99 353.458252
18.00 361.730103
18.01 361.36496
18.02 362.044037
18.03 369.662262
18.04 370.410706
18.05 364.189728
18.06 365.69931
18.07 373.637573
18.08 376.461426
18.09 381.012238
18.10 381.930206
18.11 380.338409
18.12 375.300415
18.13 376.443512
18.14 374.597504
18.15 365.684052
18.16 360.296906
18.17 352.994568
18.18 363.282959
18.19 374.43277
18.20 376.013458
18.21 379.309998
18.22 377.910614
18.23 370.236053
18.24 370.909973
18.25 371.888611
18.26 362.991486
18.27 355.128357
18.28 361.813782
18.29 372.157379
18.30 372.625244
18.31 366.426971
18.32 359.940308
18.33 362.814423
18.34 369.213806
18.35 377.589691
18.36 387.769226
18.37 383.909515
18.38 376.576294
18.39 375.127289
18.40 375.125641
18.41 372.768188
18.42 373.698822
18.43 373.227509
18.44 371.303009
18.45 368.983917
18.46 364.384705
18.47 361.740936
18.48 371.713043
18.49 378.521423
18.50 376.936707
18.51 381.655121
18.52 378.731995
18.53 376.105469
18.54 380.653961
18.55 382.088654
18.56 378.393768
18.57 375.090332
18.58 380.427734
18.59 387.589874
18.60 386.674744
18.61 382.049225
18.62 380.836029
18.63 383.69101
18.64 389.073975
18.65 389.563385
18.66 391.186005
18.67 389.11618
18.68 388.545258
18.69 389.203308
18.70 388.855103
18.71 388.849365
18.72 392.173767
18.73 396.70163
18.74 390.894287
18.75 383.565338
18.76 381.782562
18.77 380.748993
18.78 385.717041
18.79 390.131683
18.80 391.179657
18.81 392.193146
18.82 392.108521
18.83 389.36792
18.84 389.020966
18.85 395.418671
18.86 403.367371
18.87 399.743744
18.88 395.16806
18.89 389.935486
18.90 388.685699
18.91 396.333099
18.92 404.199585
18.93 397.42569
18.94 387.05423
18.95 391.517334
18.96 394.670105
18.97 391.90979
18.98 391.19101
18.99 390.332214
19.00 389.5914
19.01 391.975433
19.02 396.277832
19.03 398.263245
19.04 397.17157
19.05 394.092163
19.06 397.986816
19.07 397.329834
19.08 393.903076
19.09 397.677917
19.10 403.98111
19.11 404.312836
19.12 407.208405
19.13 414.636536
19.14 415.185242
19.15 409.964722
19.16 412.843475
19.17 413.365845
19.18 410.845886
19.19 413.874298
19.20 412.740997
19.21 408.043671
19.22 411.711121
19.23 412.297241
19.24 409.027069
19.25 407.894806
19.26 405.570465
19.27 404.340576
19.28 407.323547
19.29 403.118347
19.30 404.632233
19.31 413.545288
19.32 420.10556
19.33 418.376221
19.34 414.285858
19.35 408.002838
19.36 408.765228
19.37 412.206818
19.38 413.033264
19.39 415.191528
19.40 422.828796
19.41 427.672272
19.42 436.939941
19.43 441.999817
19.44 427.577972
19.45 421.32486
19.46 425.806427
19.47 421.031708
19.48 419.61261
19.49 423.341431
19.50 428.418884
19.51 428.708588
19.52 428.087402
19.53 433.103485
19.54 433.961731
19.55 431.757568
19.56 428.403351
19.57 426.201996
19.58 425.148285
19.59 431.052765
19.60 438.980743
19.61 432.896942
19.62 428.911072
19.63 430.944916
19.64 431.936249
19.65 436.36615
19.66 436.865784
19.67 431.932434
19.68 423.485596
19.69 421.491943
19.70 426.702942
19.71 428.449524
19.72 434.488342
19.73 437.607208
19.74 433.0112
19.75 433.384186
19.76 437.620605
19.77 440.779846
19.78 433.916473
19.79 427.168976
19.80 429.218842
19.81 427.988525
19.82 425.064514
19.83 427.425873
19.84 435.689789
19.85 431.43988
19.86 430.872925
19.87 442.621979
19.88 443.064819
19.89 438.255188
19.90 435.522644
19.91 433.809662
19.92 438.171448
19.93 433.099518
19.94 431.040222
19.95 441.038971
19.96 440.452118
19.97 434.93277
19.98 437.986267
19.99 436.301025
20.00 432.068146
20.01 439.363647
20.02 443.335052
20.03 445.361389
20.04 451.843323
20.05 450.46347
20.06 446.80658
20.07 448.269531
20.08 448.112976
20.09 451.642395
20.10 460.615234
20.11 460.752533
20.12 459.249695
20.13 453.381927
20.14 449.340698
20.15 448.588745
20.16 441.76712
20.17 443.089355
20.18 452.545074
20.19 460.08783
20.20 464.102448
20.21 469.257904
20.22 467.688812
20.23 461.130585
20.24 459.611206
20.25 464.707703
20.26 460.090912
20.27 461.297974
20.28 462.514984
20.29 464.539398
20.30 466.478577
20.31 463.49231
20.32 465.805756
20.33 471.816528
20.34 473.96347
20.35 475.395691
20.36 475.806427
20.37 468.319336
20.38 462.477325
20.39 462.707825
20.40 470.919617
20.41 473.14621
20.42 466.6203
20.43 465.804016
20.44 469.607513
20.45 468.647797
20.46 468.162201
20.47 472.460938
20.48 477.112671
20.49 480.860077
20.50 474.371307
20.51 476.076813
20.52 477.820862
20.53 469.176636
20.54 464.101013
20.55 461.054413
20.56 461.422821
20.57 464.21225
20.58 474.485321
20.59 485.758392
20.60 490.643219
20.61 488.84491
20.62 486.967499
20.63 485.360443
20.64 489.466125
20.65 493.68515
20.66 488.581665
20.67 480.831207
20.68 479.999664
20.69 482.680298
20.70 484.964539
20.71 485.947998
20.72 485.868347
20.73 486.711029
20.74 491.455658
20.75 492.684509
20.76 491.900543
20.77 492.378479
20.78 492.688141
20.79 496.185608
20.80 488.569427
20.81 489.091156
20.82 492.887268
20.83 494.568939
20.84 494.359833
20.85 499.900238
20.86 505.338501
20.87 513.787842
20.88 513.258545
20.89 500.004089
20.90 500.840546
