!@!!GADDS PLOTSO FILE: Chi integration type
!@!!Title/SampleName: ML_MAPbX3
!@!!User: NREL
!@!!Site: NREL SERF C211; SN 2510
!@!!Frame: 081022_MLProject_000_016.gfrm
!@!!Wavelengths    1.54184   1.54056   1.54439
!@!!Frame angles: 2Theta: 28.000 Omega: 5.000 Phi: 0.000 Chi: 90.000
!@!!Integration range: 2Theta: 10.000 to 41.100  Gamma: -120.400 to -60.400
!@!!Integration method: bin normalized
!@!N
!@!SS
!@!M
!@!L 0.0 0.0 0.0 0.0
!@!XDegrees
!@!YCounts
10.00 203.220581
10.01 209.781372
10.02 216.039536
10.03 221.85881
10.04 228.407745
10.05 233.71759
10.06 225.764694
10.07 210.854202
10.08 206.362656
10.09 209.157318
10.10 215.38945
10.11 220.873871
10.12 220.558762
10.13 217.990402
10.14 221.590912
10.15 225.650848
10.16 225.775085
10.17 213.617508
10.18 210.783936
10.19 222.792053
10.20 229.323105
10.21 227.088715
10.22 224.054214
10.23 216.631638
10.24 216.102371
10.25 224.637039
10.26 224.791489
10.27 225.200485
10.28 229.674713
10.29 224.9496
10.30 216.964844
10.31 216.729797
10.32 219.493454
10.33 217.587769
10.34 223.261703
10.35 233.954834
10.36 226.280594
10.37 214.799652
10.38 213.471832
10.39 215.678375
10.40 217.722549
10.41 217.392303
10.42 219.596924
10.43 216.575775
10.44 217.301483
10.45 228.327972
10.46 228.20755
10.47 221.810715
10.48 225.246567
10.49 227.449631
10.50 227.635254
10.51 226.767441
10.52 225.233231
10.53 224.851593
10.54 216.240036
10.55 213.794998
10.56 220.664215
10.57 225.77034
10.58 225.459854
10.59 219.375824
10.60 218.179642
10.61 222.841476
10.62 224.703339
10.63 230.090012
10.64 235.103012
10.65 228.10437
10.66 223.439819
10.67 231.18576
10.68 235.860931
10.69 226.932343
10.70 222.523514
10.71 227.123611
10.72 228.437729
10.73 235.683655
10.74 239.92688
10.75 235.537231
10.76 228.118576
10.77 225.756241
10.78 227.064026
10.79 220.606049
10.80 220.564316
10.81 230.444427
10.82 232.657944
10.83 228.279572
10.84 223.778595
10.85 224.769867
10.86 229.981049
10.87 236.708984
10.88 241.440643
10.89 232.590851
10.90 234.576065
10.91 241.153702
10.92 237.459518
10.93 239.753311
10.94 237.960602
10.95 232.143982
10.96 230.890549
10.97 240.132111
10.98 249.57045
10.99 250.725143
11.00 241.750259
11.01 236.564041
11.02 238.700546
11.03 234.596222
11.04 230.021439
11.05 229.669373
11.06 228.416367
11.07 226.223892
11.08 228.308578
11.09 236.241913
11.10 247.085052
11.11 243.218094
11.12 238.513077
11.13 239.096466
11.14 231.143661
11.15 225.495468
11.16 230.610886
11.17 240.337387
11.18 241.995163
11.19 247.318237
11.20 258.147461
11.21 256.164734
11.22 240.58519
11.23 234.674606
11.24 232.694458
11.25 230.495438
11.26 233.839798
11.27 235.127136
11.28 235.153732
11.29 234.034164
11.30 228.596207
11.31 232.169373
11.32 239.847076
11.33 232.347488
11.34 230.602036
11.35 245.988663
11.36 253.365906
11.37 252.114243
11.38 252.532928
11.39 249.133377
11.40 243.546402
11.41 236.469482
11.42 238.103638
11.43 242.786713
11.44 245.754227
11.45 247.228577
11.46 243.880447
11.47 243.882553
11.48 249.845398
11.49 248.712479
11.50 248.316498
11.51 254.601273
11.52 250.920761
11.53 241.479462
11.54 241.465042
11.55 247.275711
11.56 245.754044
11.57 242.641556
11.58 246.02095
11.59 246.229584
11.60 248.012085
11.61 243.048676
11.62 242.369583
11.63 251.919266
11.64 254.071121
11.65 244.159729
11.66 240.090424
11.67 252.549652
11.68 255.499557
11.69 256.677429
11.70 259.005005
11.71 258.251587
11.72 259.023834
11.73 260.367493
11.74 257.48819
11.75 250.168671
11.76 254.304977
11.77 255.170761
11.78 250.141129
11.79 250.194016
11.80 250.894104
11.81 257.006134
11.82 263.558044
11.83 256.618378
11.84 248.980621
11.85 249.402817
11.86 250.903214
11.87 251.863647
11.88 254.106689
11.89 257.122559
11.90 259.530548
11.91 268.556305
11.92 277.308228
11.93 281.380646
11.94 269.122833
11.95 253.402069
11.96 252.405762
11.97 258.005798
11.98 264.703613
11.99 266.103088
12.00 264.553497
12.01 268.184601
12.02 265.15802
12.03 263.727722
12.04 269.749451
12.05 276.497498
12.06 283.785583
12.07 287.558319
12.08 286.970337
12.09 279.728241
12.10 281.427277
12.11 285.705719
12.12 282.353333
12.13 283.149475
12.14 287.918152
12.15 281.530121
12.16 272.884033
12.17 274.630981
12.18 273.400787
12.19 277.467804
12.20 283.453308
12.21 282.354431
12.22 284.926086
12.23 289.433411
12.24 288.78241
12.25 290.47937
12.26 293.033813
12.27 288.625
12.28 288.866302
12.29 292.981934
12.30 286.674286
12.31 278.318329
12.32 283.5896
12.33 294.217224
12.34 296.605469
12.35 297.131348
12.36 297.717224
12.37 298.847229
12.38 296.210419
12.39 299.078369
12.40 305.153168
12.41 310.406372
12.42 322.782959
12.43 327.351807
12.44 323.291534
12.45 323.826416
12.46 316.522095
12.47 320.097351
12.48 326.396484
12.49 329.541931
12.50 339.489807
12.51 340.580994
12.52 341.760468
12.53 342.814941
12.54 338.740143
12.55 342.865082
12.56 345.70047
12.57 338.426392
12.58 338.504608
12.59 339.62381
12.60 334.841156
12.61 325.574249
12.62 329.893616
12.63 338.32547
12.64 333.707001
12.65 330.458527
12.66 330.753326
12.67 332.273956
12.68 336.718536
12.69 332.718414
12.70 323.929443
12.71 317.429413
12.72 313.313599
12.73 313.459991
12.74 323.223145
12.75 332.018677
12.76 321.022217
12.77 318.300934
12.78 319.147888
12.79 308.453278
12.80 303.171082
12.81 291.626526
12.82 289.240112
12.83 290.509521
12.84 297.19281
12.85 305.551025
12.86 296.752106
12.87 289.928162
12.88 295.139709
12.89 302.974182
12.90 302.918915
12.91 293.360168
12.92 289.598206
12.93 285.826691
12.94 280.706451
12.95 278.505219
12.96 274.726929
12.97 274.606995
12.98 275.193726
12.99 276.566559
13.00 282.156403
13.01 287.94809
13.02 290.853546
13.03 288.191406
13.04 288.13205
13.05 283.734375
13.06 281.934265
13.07 284.819855
13.08 283.657684
13.09 282.557953
13.10 287.534393
13.11 292.743225
13.12 293.978912
13.13 284.691284
13.14 280.393494
13.15 281.740997
13.16 281.118713
13.17 285.20517
13.18 284.398254
13.19 285.901489
13.20 283.149231
13.21 275.864594
13.22 278.795593
13.23 285.691284
13.24 283.234375
13.25 278.280121
13.26 276.65506
13.27 275.171967
13.28 285.911346
13.29 292.477661
13.30 289.325928
13.31 285.083527
13.32 288.885406
13.33 287.337463
13.34 291.508118
13.35 298.257172
13.36 293.036194
13.37 287.604218
13.38 284.833069
13.39 283.151276
13.40 281.813049
13.41 279.23233
13.42 283.662598
13.43 295.608002
13.44 302.39798
13.45 306.482391
13.46 310.35553
13.47 312.890259
13.48 317.375549
13.49 321.478882
13.50 315.384552
13.51 305.906708
13.52 308.8685
13.53 314.326233
13.54 321.514709
13.55 319.341949
13.56 317.797485
13.57 327.689423
13.58 335.864136
13.59 345.675873
13.60 356.94931
13.61 361.225952
13.62 357.130463
13.63 350.507294
13.64 352.380005
13.65 355.639771
13.66 353.038239
13.67 348.382996
13.68 356.100403
13.69 372.270203
13.70 378.762024
13.71 381.227142
13.72 384.540741
13.73 398.961975
13.74 401.729095
13.75 400.16275
13.76 412.826355
13.77 423.57373
13.78 429.160492
13.79 436.777649
13.80 446.981995
13.81 450.196136
13.82 442.400604
13.83 448.780182
13.84 464.426727
13.85 478.734619
13.86 489.71048
13.87 490.672363
13.88 498.297882
13.89 515.986816
13.90 538.839294
13.91 543.487915
13.92 547.696045
13.93 563.115967
13.94 569.721436
13.95 565.879578
13.96 571.773438
13.97 584.499512
13.98 593.366943
13.99 603.632874
14.00 627.536377
14.01 655.846863
14.02 668.866455
14.03 656.523804
14.04 656.608337
14.05 658.066223
14.06 645.800171
14.07 652.021362
14.08 656.321472
14.09 659.676208
14.10 661.72937
14.11 651.205994
14.12 645.744019
14.13 648.583435
14.14 647.180115
14.15 639.725952
14.16 635.361084
14.17 638.10321
14.18 621.308228
14.19 603.46637
14.20 590.009033
14.21 573.234009
14.22 561.972778
14.23 555.191284
14.24 543.379822
14.25 520.235535
14.26 492.586792
14.27 475.264221
14.28 462.312866
14.29 447.492798
14.30 427.15271
14.31 428.820496
14.32 424.182739
14.33 401.754089
14.34 388.065704
14.35 395.292175
14.36 397.578766
14.37 386.888824
14.38 373.380768
14.39 365.288757
14.40 367.07373
14.41 371.698975
14.42 369.235199
14.43 359.006805
14.44 355.387939
14.45 346.94046
14.46 337.866699
14.47 326.427734
14.48 316.350983
14.49 313.990509
14.50 314.431061
14.51 327.755371
14.52 343.684296
14.53 340.132965
14.54 332.7836
14.55 330.049957
14.56 322.083954
14.57 318.019714
14.58 314.648346
14.59 311.286377
14.60 308.830963
14.61 307.527283
14.62 305.753357
14.63 305.601532
14.64 308.390198
14.65 314.651367
14.66 320.777557
14.67 318.930878
14.68 314.505554
14.69 313.90097
14.70 325.46109
14.71 332.579803
14.72 331.550598
14.73 326.570648
14.74 321.976959
14.75 322.754578
14.76 323.418793
14.77 313.108521
14.78 307.346924
14.79 309.576111
14.80 307.930328
14.81 307.31958
14.82 310.823364
14.83 312.598358
14.84 311.160492
14.85 320.099213
14.86 327.796082
14.87 327.656464
14.88 321.766357
14.89 317.523438
14.90 315.757507
14.91 312.742035
14.92 314.740509
14.93 320.577637
14.94 321.086731
14.95 318.982727
14.96 328.008453
14.97 327.719299
14.98 322.674011
14.99 325.219238
15.00 326.465179
15.01 322.591431
15.02 324.540558
15.03 319.659729
15.04 322.4216
15.05 329.659943
15.06 326.65155
15.07 336.456177
15.08 340.172211
15.09 331.070343
15.10 332.684357
15.11 341.654999
15.12 345.13562
15.13 339.316986
15.14 339.75354
15.15 351.639252
15.16 354.475525
15.17 356.541229
15.18 357.934174
15.19 359.643463
15.20 363.732849
15.21 359.947723
15.22 359.56839
15.23 364.3414
15.24 368.237885
15.25 366.844299
15.26 367.130524
15.27 366.808746
15.28 362.328949
15.29 367.716492
15.30 378.180634
15.31 382.142059
15.32 384.440338
15.33 382.398346
15.34 374.756592
15.35 372.108551
15.36 380.01828
15.37 382.634033
15.38 376.836823
15.39 376.993805
15.40 375.957428
15.41 376.25769
15.42 378.050903
15.43 379.817047
15.44 383.873718
15.45 379.741669
15.46 368.644196
15.47 365.693573
15.48 369.571228
15.49 362.723236
15.50 357.9953
15.51 362.469421
15.52 363.628876
15.53 363.395935
15.54 359.860657
15.55 359.002655
15.56 364.981781
15.57 362.040283
15.58 356.108856
15.59 347.859558
15.60 334.776886
15.61 342.972809
15.62 356.106323
15.63 351.157166
15.64 345.448822
15.65 344.959259
15.66 344.716431
15.67 335.430603
15.68 327.712067
15.69 329.90976
15.70 330.206573
15.71 329.259521
15.72 334.670959
15.73 335.806824
15.74 332.580658
15.75 327.747253
15.76 326.914825
15.77 322.452393
15.78 325.560486
15.79 330.549866
15.80 328.1091
15.81 327.305939
15.82 321.830353
15.83 324.452026
15.84 331.196106
15.85 325.432343
15.86 324.731537
15.87 326.275818
15.88 322.357819
15.89 330.743195
15.90 328.344849
15.91 319.080383
15.92 311.040985
15.93 310.46814
15.94 315.868744
15.95 316.503448
15.96 320.066071
15.97 323.923126
15.98 331.423981
15.99 336.477509
16.00 331.814636
16.01 329.04834
16.02 328.849182
16.03 329.856323
16.04 331.509308
16.05 333.20343
16.06 328.597473
16.07 325.307922
16.08 325.464294
16.09 325.041687
16.10 329.088348
16.11 333.459198
16.12 332.638336
16.13 324.916046
16.14 323.445862
16.15 328.820282
16.16 333.52951
16.17 330.705353
16.18 334.657959
16.19 340.685394
16.20 329.782501
16.21 322.612793
16.22 321.848724
16.23 317.203156
16.24 313.979462
16.25 318.168915
16.26 323.798676
16.27 321.141541
16.28 323.103607
16.29 325.143066
16.30 329.207184
16.31 333.903778
16.32 338.677002
16.33 336.209717
16.34 329.666351
16.35 328.427551
16.36 325.648743
16.37 322.798645
16.38 331.619812
16.39 337.547272
16.40 339.653931
16.41 331.548218
16.42 328.348938
16.43 326.440308
16.44 324.357208
16.45 321.903259
16.46 320.587097
16.47 324.355377
16.48 325.807159
16.49 327.808044
16.50 331.033539
16.51 335.467255
16.52 338.809723
16.53 334.716919
16.54 331.681976
16.55 333.670746
16.56 328.236206
16.57 318.165558
16.58 327.818634
16.59 331.279907
16.60 325.322937
16.61 326.220886
16.62 321.734894
16.63 321.313843
16.64 332.32077
16.65 339.617065
16.66 342.112488
16.67 343.286713
16.68 344.414459
16.69 343.930969
16.70 344.353821
16.71 343.247498
16.72 339.751831
16.73 344.361267
16.74 341.967957
16.75 337.302124
16.76 334.212463
16.77 333.169617
16.78 340.670898
16.79 347.450104
16.80 343.357269
16.81 336.117432
16.82 331.483734
16.83 327.281158
16.84 322.867188
16.85 329.150421
16.86 337.291595
16.87 334.422638
16.88 340.077881
16.89 342.952087
16.90 338.305237
16.91 339.037598
16.92 332.160675
16.93 323.823029
16.94 323.513458
16.95 324.580109
16.96 331.283966
16.97 340.962677
16.98 346.746552
16.99 352.544373
17.00 356.137756
17.01 346.498779
17.02 339.702881
17.03 344.235809
17.04 344.551239
17.05 343.244293
17.06 344.777039
17.07 344.220673
17.08 346.95282
17.09 345.644928
17.10 340.323669
17.11 342.781952
17.12 350.607544
17.13 346.236725
17.14 347.007782
17.15 350.482361
17.16 350.380341
17.17 353.61261
17.18 350.017212
17.19 338.468842
17.20 340.270996
17.21 347.177216
17.22 348.980682
17.23 348.416046
17.24 346.492157
17.25 336.689606
17.26 335.696198
17.27 342.880432
17.28 332.064545
17.29 332.097839
17.30 345.344696
17.31 343.655304
17.32 340.189087
17.33 342.889526
17.34 352.697784
17.35 351.466431
17.36 352.445465
17.37 354.354736
17.38 348.27005
17.39 342.369415
17.40 340.208221
17.41 348.994934
17.42 356.179443
17.43 357.021729
17.44 348.362
17.45 352.35968
17.46 356.7677
17.47 352.845703
17.48 357.010864
17.49 362.996765
17.50 371.23407
17.51 373.01474
17.52 364.263184
17.53 356.845978
17.54 357.090332
17.55 360.461243
17.56 359.725189
17.57 355.886475
17.58 352.137177
17.59 352.638519
17.60 355.926025
17.61 358.86731
17.62 358.781219
17.63 355.164093
17.64 357.107483
17.65 358.225037
17.66 366.178589
17.67 372.719299
17.68 376.137604
17.69 372.359833
17.70 372.151855
17.71 373.291046
17.72 371.875549
17.73 363.67395
17.74 358.598511
17.75 356.766266
17.76 358.290924
17.77 365.35788
17.78 362.135834
17.79 356.213593
17.80 358.190552
17.81 358.898773
17.82 364.708771
17.83 369.652679
17.84 364.503448
17.85 363.700287
17.86 370.937592
17.87 370.300873
17.88 370.024597
17.89 371.28299
17.90 364.256165
17.91 367.795807
17.92 372.514191
17.93 375.450348
17.94 374.661438
17.95 367.777863
17.96 369.784882
17.97 376.508423
17.98 371.460693
17.99 369.171967
18.00 375.467926
18.01 382.57608
18.02 387.082245
18.03 382.755188
18.04 375.59845
18.05 378.131165
18.06 384.761047
18.07 384.441376
18.08 382.242249
18.09 378.087006
18.10 374.123657
18.11 375.947601
18.12 375.546997
18.13 383.516632
18.14 384.932251
18.15 375.556641
18.16 380.140961
18.17 385.531097
18.18 381.756958
18.19 374.610046
18.20 380.789886
18.21 384.965912
18.22 381.064392
18.23 377.999451
18.24 371.26004
18.25 372.221497
18.26 370.898651
18.27 373.14505
18.28 382.453156
18.29 384.651733
18.30 382.808105
18.31 382.746552
18.32 390.858246
18.33 391.068146
18.34 385.712433
18.35 384.838409
18.36 384.234192
18.37 388.808533
18.38 391.581787
18.39 402.397491
18.40 409.794403
18.41 398.69809
18.42 391.643066
18.43 387.284088
18.44 382.572876
18.45 385.407074
18.46 389.24057
18.47 388.708313
18.48 387.191101
18.49 387.513977
18.50 386.83786
18.51 388.021942
18.52 392.70108
18.53 391.629761
18.54 392.652893
18.55 394.436676
18.56 391.437775
18.57 391.532074
18.58 384.791199
18.59 379.098633
18.60 385.095306
18.61 392.04657
18.62 392.488129
18.63 398.369354
18.64 402.335327
18.65 400.000977
18.66 398.152679
18.67 396.683136
18.68 404.613678
18.69 409.600098
18.70 403.527985
18.71 402.772552
18.72 411.048584
18.73 422.730591
18.74 418.131348
18.75 407.280396
18.76 406.279358
18.77 401.134552
18.78 400.535126
18.79 406.122833
18.80 402.721741
18.81 401.427246
18.82 396.428162
18.83 388.44574
18.84 389.864075
18.85 403.286804
18.86 408.325623
18.87 407.015411
18.88 405.088165
18.89 402.092224
18.90 404.000793
18.91 410.80191
18.92 416.456451
18.93 419.037201
18.94 418.38913
18.95 408.365387
18.96 402.577545
18.97 411.412506
18.98 413.723846
18.99 411.261658
19.00 417.464813
19.01 418.675842
19.02 410.750153
19.03 406.050018
19.04 406.322205
19.05 408.2966
19.06 406.417694
19.07 402.815552
19.08 407.164886
19.09 414.77948
19.10 414.698761
19.11 409.753967
19.12 413.352234
19.13 422.237305
19.14 422.007568
19.15 418.558136
19.16 424.799866
19.17 424.823059
19.18 411.71463
19.19 415.400604
19.20 423.180725
19.21 427.602539
19.22 423.705048
19.23 420.720459
19.24 421.400085
19.25 424.419983
19.26 428.457184
19.27 430.409882
19.28 430.427429
19.29 430.744293
19.30 428.194672
19.31 426.51358
19.32 424.72464
19.33 418.725342
19.34 410.608063
19.35 406.204681
19.36 411.977264
19.37 417.302673
19.38 422.302155
19.39 421.101685
19.40 422.669159
19.41 422.681427
19.42 422.426392
19.43 428.042816
19.44 429.372803
19.45 429.568268
19.46 431.630096
19.47 435.083099
19.48 438.576874
19.49 438.434906
19.50 441.981842
19.51 443.036346
19.52 433.569672
19.53 432.651215
19.54 441.112732
19.55 442.271698
19.56 437.651611
19.57 444.405945
19.58 452.341675
19.59 447.120392
19.60 436.63678
19.61 430.150665
19.62 432.305389
19.63 441.066101
19.64 444.22937
19.65 443.19519
19.66 449.589508
19.67 449.98999
19.68 443.053467
19.69 445.893341
19.70 453.981964
19.71 456.361267
19.72 455.847504
19.73 452.336945
19.74 449.853973
19.75 444.255615
19.76 438.77066
19.77 443.827881
19.78 446.493896
19.79 449.766449
19.80 454.793518
19.81 454.907623
19.82 460.563263
19.83 464.389893
19.84 460.630127
19.85 461.428711
19.86 461.915466
19.87 463.027466
19.88 460.953308
19.89 460.383362
19.90 463.659576
19.91 461.234283
19.92 458.853546
19.93 457.867584
19.94 459.204315
19.95 472.383026
19.96 481.75827
19.97 477.50119
19.98 469.208252
19.99 465.984985
20.00 467.444641
20.01 471.924866
20.02 472.4552
20.03 473.360687
20.04 468.713837
20.05 460.546265
20.06 459.516968
20.07 465.690735
20.08 466.286011
20.09 468.941589
20.10 468.917755
20.11 468.524689
20.12 464.692474
20.13 463.840454
20.14 463.429626
20.15 458.663239
20.16 459.444916
20.17 453.111389
20.18 457.716339
20.19 476.255707
20.20 479.93866
20.21 481.764191
20.22 479.018188
20.23 468.102631
20.24 469.914246
20.25 473.555939
20.26 463.333405
20.27 458.639099
20.28 461.28952
20.29 466.613007
20.30 471.030457
20.31 471.355347
20.32 473.505157
20.33 478.987335
20.34 479.151062
20.35 475.556946
20.36 479.991852
20.37 478.130341
20.38 474.947906
20.39 476.075867
20.40 479.119019
20.41 478.365875
20.42 480.684631
20.43 473.516785
20.44 467.384766
20.45 471.585419
20.46 480.545013
20.47 481.485107
20.48 481.64212
20.49 476.274902
20.50 481.848419
20.51 489.471466
20.52 485.921661
20.53 485.726471
20.54 487.667908
20.55 486.929108
20.56 491.5289
20.57 490.373108
20.58 486.990326
20.59 492.055939
20.60 489.177643
20.61 474.488068
20.62 470.264069
20.63 473.247101
20.64 478.240662
20.65 480.361389
20.66 481.159088
20.67 477.989838
20.68 481.026886
20.69 485.674561
20.70 490.820465
20.71 493.320892
20.72 491.474335
20.73 485.977112
20.74 485.874054
20.75 488.72583
20.76 487.07132
20.77 488.124023
20.78 498.107056
20.79 506.211548
20.80 507.205688
20.81 506.214447
20.82 505.206512
20.83 506.93219
20.84 510.753906
20.85 499.399506
20.86 492.006836
20.87 496.920105
20.88 495.523132
20.89 491.693817
20.90 492.319763
