!@!!GADDS PLOTSO FILE: Chi integration type
!@!!Title/SampleName: ML_MAPbX3
!@!!User: NREL
!@!!Site: NREL SERF C211; SN 2510
!@!!Frame: 081022_MLProject_000_011.gfrm
!@!!Wavelengths    1.54184   1.54056   1.54439
!@!!Frame angles: 2Theta: 28.000 Omega: 5.000 Phi: 0.000 Chi: 90.000
!@!!Integration range: 2Theta: 10.000 to 41.100  Gamma: -120.400 to -60.400
!@!!Integration method: bin normalized
!@!N
!@!SS
!@!M
!@!L 0.0 0.0 0.0 0.0
!@!XDegrees
!@!YCounts
10.00 197.377182
10.01 192.897034
10.02 197.256241
10.03 198.703369
10.04 203.75116
10.05 207.904083
10.06 199.552109
10.07 194.707352
10.08 189.170746
10.09 186.819595
10.10 199.202789
10.11 208.974945
10.12 209.227432
10.13 197.775146
10.14 198.426926
10.15 206.672775
10.16 204.788147
10.17 206.894073
10.18 214.016907
10.19 221.909271
10.20 224.084869
10.21 215.357391
10.22 205.806137
10.23 209.588882
10.24 212.507645
10.25 206.475754
10.26 207.875931
10.27 222.416275
10.28 215.795593
10.29 205.439362
10.30 207.188156
10.31 211.266953
10.32 208.717682
10.33 200.764648
10.34 198.250641
10.35 202.303131
10.36 197.443695
10.37 190.637497
10.38 195.754181
10.39 197.550812
10.40 204.492218
10.41 215.050369
10.42 214.238403
10.43 206.998444
10.44 212.047256
10.45 217.266434
10.46 212.622208
10.47 206.37413
10.48 208.712494
10.49 217.597137
10.50 215.621521
10.51 213.261444
10.52 213.575668
10.53 213.411301
10.54 218.360428
10.55 222.456299
10.56 218.754517
10.57 215.533096
10.58 210.614868
10.59 209.088165
10.60 206.463181
10.61 198.243225
10.62 199.788498
10.63 212.460907
10.64 225.751785
10.65 218.132141
10.66 214.383331
10.67 219.25386
10.68 215.460815
10.69 214.888199
10.70 214.37262
10.71 212.066147
10.72 210.890381
10.73 209.971207
10.74 214.101608
10.75 220.280289
10.76 222.650864
10.77 225.720383
10.78 220.700562
10.79 217.424179
10.80 221.826187
10.81 223.092133
10.82 227.234467
10.83 226.168076
10.84 227.610992
10.85 227.79866
10.86 224.94136
10.87 225.397858
10.88 228.614822
10.89 222.503754
10.90 213.371948
10.91 220.490082
10.92 223.89473
10.93 222.910583
10.94 225.613571
10.95 226.02092
10.96 230.979401
10.97 234.403122
10.98 231.314301
10.99 219.260696
11.00 212.598465
11.01 220.73291
11.02 230.702835
11.03 230.00354
11.04 226.557648
11.05 223.748062
11.06 224.38829
11.07 225.50029
11.08 222.676743
11.09 226.191681
11.10 231.832474
11.11 227.946472
11.12 223.88324
11.13 228.576019
11.14 224.759445
11.15 221.181793
11.16 220.144638
11.17 224.267883
11.18 223.430527
11.19 219.890182
11.20 223.545959
11.21 225.47049
11.22 220.275467
11.23 221.698959
11.24 224.83815
11.25 218.027161
11.26 219.506973
11.27 224.879272
11.28 225.918839
11.29 233.303574
11.30 242.736649
11.31 241.081055
11.32 224.079239
11.33 217.678299
11.34 221.379974
11.35 230.108078
11.36 241.674667
11.37 233.74057
11.38 221.039169
11.39 225.467148
11.40 230.310806
11.41 224.603867
11.42 228.306152
11.43 230.080795
11.44 236.186172
11.45 236.113083
11.46 238.334457
11.47 246.445801
11.48 241.143509
11.49 239.500916
11.50 247.610626
11.51 245.746368
11.52 239.452469
11.53 238.302231
11.54 237.696167
11.55 235.677917
11.56 226.847641
11.57 219.527542
11.58 227.394379
11.59 235.205429
11.60 242.375259
11.61 252.790558
11.62 248.232468
11.63 237.88446
11.64 232.856445
11.65 228.130005
11.66 227.198654
11.67 231.490936
11.68 240.092712
11.69 251.75882
11.70 253.901398
11.71 248.969894
11.72 248.117874
11.73 242.41301
11.74 240.813904
11.75 242.174957
11.76 241.883621
11.77 239.017273
11.78 242.365982
11.79 244.868515
11.80 241.976379
11.81 245.295975
11.82 243.444229
11.83 246.315994
11.84 244.785904
11.85 242.206436
11.86 239.088852
11.87 239.006241
11.88 243.897476
11.89 244.920776
11.90 238.790527
11.91 238.43808
11.92 245.339188
11.93 246.258408
11.94 245.329742
11.95 249.931335
11.96 249.452393
11.97 253.324371
11.98 254.041412
11.99 240.871231
12.00 234.468857
12.01 235.974564
12.02 230.932571
12.03 232.319351
12.04 246.627548
12.05 246.493607
12.06 236.145279
12.07 236.713867
12.08 237.180435
12.09 239.796341
12.10 248.238281
12.11 255.55011
12.12 259.202545
12.13 252.498566
12.14 249.748398
12.15 250.826279
12.16 247.070953
12.17 248.590164
12.18 248.843948
12.19 239.962814
12.20 239.3423
12.21 243.438522
12.22 243.893112
12.23 249.247803
12.24 258.270386
12.25 262.184326
12.26 254.058624
12.27 242.247833
12.28 238.358658
12.29 243.671677
12.30 244.528275
12.31 243.364136
12.32 243.516861
12.33 245.907822
12.34 249.724548
12.35 249.430328
12.36 246.647263
12.37 248.366501
12.38 257.131226
12.39 265.795044
12.40 260.984985
12.41 252.481277
12.42 251.536545
12.43 252.483871
12.44 250.643799
12.45 254.665482
12.46 255.021011
12.47 249.160339
12.48 249.932007
12.49 256.558441
12.50 255.534637
12.51 256.953094
12.52 260.735321
12.53 251.373093
12.54 250.155411
12.55 255.819641
12.56 255.333832
12.57 265.730621
12.58 281.576202
12.59 278.661224
12.60 270.997864
12.61 268.460663
12.62 264.773682
12.63 261.206329
12.64 267.482178
12.65 265.213379
12.66 254.845596
12.67 247.898087
12.68 244.950684
12.69 255.607315
12.70 260.931458
12.71 262.050629
12.72 263.715271
12.73 252.45314
12.74 254.93692
12.75 266.160767
12.76 260.566681
12.77 250.33667
12.78 251.114227
12.79 255.559341
12.80 257.318298
12.81 261.339081
12.82 268.430084
12.83 272.196533
12.84 272.688446
12.85 269.140686
12.86 264.305511
12.87 260.316711
12.88 264.523987
12.89 270.328735
12.90 269.943817
12.91 273.576843
12.92 272.090607
12.93 264.901642
12.94 264.952698
12.95 268.580017
12.96 275.7229
12.97 279.108276
12.98 273.87561
12.99 272.023743
13.00 269.277863
13.01 269.914307
13.02 272.941925
13.03 269.525696
13.04 269.861847
13.05 273.839325
13.06 268.220337
13.07 253.375473
13.08 251.70665
13.09 257.776917
13.10 265.728912
13.11 273.334869
13.12 264.079559
13.13 254.189301
13.14 254.921432
13.15 261.176483
13.16 265.806671
13.17 264.624878
13.18 264.053192
13.19 265.465485
13.20 267.079468
13.21 269.632507
13.22 264.361633
13.23 261.621918
13.24 265.17157
13.25 268.827881
13.26 277.122559
13.27 285.840729
13.28 285.967438
13.29 274.840027
13.30 276.920349
13.31 283.04007
13.32 278.770813
13.33 280.416443
13.34 289.308472
13.35 289.251495
13.36 279.220337
13.37 276.658295
13.38 275.761932
13.39 276.225189
13.40 283.478088
13.41 288.59021
13.42 287.601685
13.43 286.946472
13.44 283.767212
13.45 282.147858
13.46 278.992645
13.47 279.48114
13.48 286.559906
13.49 288.4375
13.50 291.73941
13.51 282.071167
13.52 269.526794
13.53 267.996826
13.54 276.172913
13.55 285.610352
13.56 292.973907
13.57 294.397858
13.58 284.519348
13.59 281.276794
13.60 284.445007
13.61 288.857727
13.62 289.848541
13.63 285.126251
13.64 282.237976
13.65 285.686462
13.66 287.819916
13.67 285.475189
13.68 283.193542
13.69 281.164764
13.70 281.784088
13.71 285.754791
13.72 287.251862
13.73 290.357178
13.74 289.387939
13.75 282.94693
13.76 278.592041
13.77 276.585022
13.78 284.805054
13.79 294.237183
13.80 296.465546
13.81 289.146088
13.82 280.524658
13.83 281.222168
13.84 297.124176
13.85 300.74646
13.86 291.719299
13.87 292.217468
13.88 290.561523
13.89 289.996582
13.90 295.305786
13.91 291.339844
13.92 289.97049
13.93 296.027039
13.94 289.211456
13.95 279.289307
13.96 283.321899
13.97 296.479889
13.98 300.036987
13.99 298.991119
14.00 302.447601
14.01 301.472565
14.02 293.003693
14.03 289.390625
14.04 302.38269
14.05 308.791382
14.06 298.643188
14.07 291.001801
14.08 297.399048
14.09 293.727386
14.10 288.83194
14.11 298.313873
14.12 307.169098
14.13 309.542114
14.14 302.546661
14.15 289.590424
14.16 289.844055
14.17 293.754791
14.18 294.782867
14.19 295.248871
14.20 293.72226
14.21 300.88031
14.22 305.134674
14.23 298.383179
14.24 297.762207
14.25 297.630798
14.26 296.265228
14.27 302.305359
14.28 313.294983
14.29 311.630707
14.30 305.317993
14.31 308.066254
14.32 314.130219
14.33 314.564697
14.34 310.079132
14.35 304.967926
14.36 313.653076
14.37 319.121643
14.38 318.697876
14.39 329.394562
14.40 333.244049
14.41 328.377411
14.42 323.819794
14.43 327.641571
14.44 328.389648
14.45 324.278748
14.46 332.52829
14.47 344.345428
14.48 340.656921
14.49 336.597351
14.50 342.074005
14.51 349.493134
14.52 360.570709
14.53 358.996063
14.54 358.520569
14.55 366.315186
14.56 365.199158
14.57 369.793549
14.58 373.282135
14.59 372.414764
14.60 374.292297
14.61 384.755402
14.62 388.944275
14.63 390.198425
14.64 408.750305
14.65 420.179474
14.66 420.957001
14.67 418.546112
14.68 428.539215
14.69 431.525116
14.70 436.423706
14.71 447.651703
14.72 461.97879
14.73 467.108429
14.74 479.837463
14.75 495.494354
14.76 496.528412
14.77 497.437073
14.78 504.129852
14.79 514.822998
14.80 518.442749
14.81 532.445251
14.82 568.668335
14.83 596.482117
14.84 596.489563
14.85 604.032959
14.86 609.583557
14.87 624.521606
14.88 629.876709
14.89 656.255371
14.90 692.988098
14.91 709.933411
14.92 716.062927
14.93 726.608276
14.94 739.326782
14.95 757.624512
14.96 779.830444
14.97 802.203308
14.98 835.038818
14.99 854.995728
15.00 869.354797
15.01 880.404663
15.02 914.795044
15.03 930.103271
15.04 956.213562
15.05 977.990234
15.06 1003.444458
15.07 1036.994629
15.08 1055.797485
15.09 1060.434814
15.10 1079.283691
15.11 1101.047974
15.12 1120.610474
15.13 1129.071533
15.14 1125.773071
15.15 1124.548096
15.16 1118.526001
15.17 1112.102905
15.18 1108.391602
15.19 1088.607422
15.20 1082.210327
15.21 1069.401855
15.22 1041.2052
15.23 1022.861145
15.24 1001.484924
15.25 957.730103
15.26 930.161011
15.27 898.788391
15.28 857.576111
15.29 823.562012
15.30 781.343628
15.31 753.920166
15.32 722.669189
15.33 693.494934
15.34 655.101868
15.35 639.775146
15.36 604.97113
15.37 587.921021
15.38 567.442749
15.39 540.17981
15.40 526.545898
15.41 510.536743
15.42 488.731354
15.43 477.530884
15.44 463.488495
15.45 446.254944
15.46 433.576141
15.47 427.764954
15.48 428.107666
15.49 420.187744
15.50 404.536072
15.51 389.896484
15.52 383.248322
15.53 376.009979
15.54 374.618561
15.55 372.387878
15.56 371.636169
15.57 378.204498
15.58 371.300598
15.59 359.669067
15.60 356.60791
15.61 357.184814
15.62 357.728607
15.63 366.421143
15.64 371.960083
15.65 371.309235
15.66 372.806244
15.67 367.354431
15.68 353.758545
15.69 346.764313
15.70 349.617432
15.71 352.578766
15.72 357.207458
15.73 354.015778
15.74 352.59317
15.75 356.53717
15.76 351.075012
15.77 346.643616
15.78 342.394989
15.79 337.011353
15.80 344.370667
15.81 358.809448
15.82 358.074463
15.83 348.349915
15.84 344.350433
15.85 346.138306
15.86 353.036133
15.87 348.670258
15.88 344.738922
15.89 344.215485
15.90 344.289459
15.91 343.345337
15.92 345.100616
15.93 347.861816
15.94 346.4039
15.95 351.346375
15.96 351.09256
15.97 345.992889
15.98 341.009735
15.99 340.367188
16.00 344.805634
16.01 346.069366
16.02 340.628265
16.03 339.577087
16.04 344.963226
16.05 348.399475
16.06 343.450745
16.07 338.053223
16.08 338.070618
16.09 342.776306
16.10 345.485535
16.11 340.22644
16.12 334.506378
16.13 332.253021
16.14 340.814606
16.15 352.957275
16.16 349.814087
16.17 346.278229
16.18 350.764404
16.19 349.981628
16.20 340.168854
16.21 332.29895
16.22 327.08136
16.23 333.351349
16.24 340.594543
16.25 340.373627
16.26 339.044342
16.27 331.626251
16.28 334.257385
16.29 341.044769
16.30 345.484589
16.31 346.031403
16.32 347.924316
16.33 355.072784
16.34 355.299683
16.35 352.69223
16.36 356.681671
16.37 354.907013
16.38 352.780975
16.39 343.790405
16.40 344.772736
16.41 353.400085
16.42 350.163483
16.43 351.144348
16.44 350.510498
16.45 346.653168
16.46 342.372498
16.47 338.124878
16.48 336.721893
16.49 338.782227
16.50 340.920044
16.51 335.037872
16.52 331.512299
16.53 339.058258
16.54 351.568359
16.55 358.645905
16.56 356.5784
16.57 347.589142
16.58 342.800232
16.59 345.122986
16.60 353.197601
16.61 352.248535
16.62 350.786652
16.63 353.602936
16.64 357.692505
16.65 363.509674
16.66 352.403839
16.67 343.610687
16.68 353.934174
16.69 361.944641
16.70 366.510223
16.71 366.160706
16.72 360.921631
16.73 354.248169
16.74 354.225433
16.75 352.506683
16.76 355.051025
16.77 365.311798
16.78 360.081543
16.79 351.252502
16.80 355.63974
16.81 356.182526
16.82 355.954803
16.83 357.329407
16.84 355.426208
16.85 357.638885
16.86 369.549408
16.87 373.2995
16.88 371.445618
16.89 366.029144
16.90 356.364655
16.91 353.566223
16.92 363.334381
16.93 363.719727
16.94 360.63446
16.95 360.270325
16.96 354.713501
16.97 350.871674
16.98 352.871399
16.99 358.504883
17.00 359.852051
17.01 359.574585
17.02 361.910828
17.03 360.020935
17.04 353.328949
17.05 354.620819
17.06 358.753601
17.07 360.936859
17.08 367.10556
17.09 371.006897
17.10 367.242249
17.11 363.936157
17.12 367.952881
17.13 370.361206
17.14 366.976257
17.15 366.944641
17.16 369.866791
17.17 370.529602
17.18 370.106659
17.19 366.029419
17.20 365.209412
17.21 364.587921
17.22 363.496796
17.23 361.205719
17.24 360.236359
17.25 361.964569
17.26 373.325897
17.27 372.852692
17.28 364.627472
17.29 364.914734
17.30 373.071533
17.31 380.809814
17.32 377.508148
17.33 376.294617
17.34 382.848175
17.35 383.627899
17.36 370.352692
17.37 371.006653
17.38 374.092804
17.39 371.283203
17.40 377.084015
17.41 381.306641
17.42 383.611145
17.43 386.449219
17.44 386.018433
17.45 382.267731
17.46 378.532043
17.47 377.80069
17.48 378.874908
17.49 380.375854
17.50 379.755157
17.51 384.845856
17.52 381.717133
17.53 378.635284
17.54 383.216705
17.55 387.684143
17.56 390.929993
17.57 387.934296
17.58 376.865692
17.59 373.876007
17.60 375.581879
17.61 382.816254
17.62 382.482605
17.63 378.7034
17.64 382.701691
17.65 377.141693
17.66 367.692352
17.67 370.46109
17.68 376.288757
17.69 386.032318
17.70 393.38205
17.71 386.629364
17.72 381.650818
17.73 380.021332
17.74 377.210602
17.75 383.985382
17.76 387.546875
17.77 381.937653
17.78 380.465363
17.79 380.55011
17.80 381.167297
17.81 384.786957
17.82 390.789215
17.83 397.769592
17.84 403.36731
17.85 396.74115
17.86 391.615173
17.87 389.201111
17.88 395.043671
17.89 400.595734
17.90 393.971222
17.91 392.485809
17.92 396.460693
17.93 399.849976
17.94 402.302063
17.95 405.63327
17.96 406.159882
17.97 400.677551
17.98 397.08139
17.99 395.008118
18.00 395.295044
18.01 398.989441
18.02 398.906311
18.03 393.558899
18.04 394.319672
18.05 391.930664
18.06 391.919739
18.07 398.492126
18.08 396.988098
18.09 402.715881
18.10 408.788574
18.11 408.466187
18.12 413.404968
18.13 417.162109
18.14 411.621613
18.15 400.877014
18.16 393.979706
18.17 394.897736
18.18 397.177948
18.19 400.145996
18.20 398.072815
18.21 398.585419
18.22 404.178833
18.23 407.24939
18.24 409.414917
18.25 406.670624
18.26 405.273743
18.27 403.134277
18.28 404.675812
18.29 403.964142
18.30 406.427155
18.31 405.611877
18.32 408.064728
18.33 422.637665
18.34 432.058044
18.35 423.910583
18.36 422.420868
18.37 422.624725
18.38 419.930603
18.39 419.580322
18.40 411.990936
18.41 411.463806
18.42 412.832977
18.43 408.025421
18.44 404.182434
18.45 402.6763
18.46 408.112396
18.47 414.973145
18.48 412.943573
18.49 412.498627
18.50 417.91925
18.51 425.123169
18.52 422.735321
18.53 414.300598
18.54 413.709656
18.55 421.593048
18.56 423.041992
18.57 426.025116
18.58 435.587128
18.59 437.613159
18.60 431.511322
18.61 426.404114
18.62 424.104401
18.63 420.851807
18.64 412.463715
18.65 406.671082
18.66 408.208679
18.67 417.038727
18.68 424.296814
18.69 430.520935
18.70 434.775574
18.71 436.314728
18.72 433.185394
18.73 432.6987
18.74 428.31842
18.75 421.739441
18.76 417.341736
18.77 426.547729
18.78 438.60437
18.79 437.682953
18.80 434.629059
18.81 437.819305
18.82 439.209442
18.83 435.895264
18.84 435.368195
18.85 440.240906
18.86 443.38562
18.87 439.609863
18.88 436.605072
18.89 433.439514
18.90 436.201996
18.91 431.882233
18.92 428.88916
18.93 431.444427
18.94 430.903656
18.95 435.603943
18.96 440.216675
18.97 442.256561
18.98 439.595398
18.99 431.372955
19.00 426.672089
19.01 425.916473
19.02 426.742188
19.03 432.961365
19.04 439.300049
19.05 445.61618
19.06 442.733612
19.07 437.476715
19.08 442.704285
19.09 450.258545
19.10 447.632019
19.11 450.394684
19.12 455.278656
19.13 451.843048
19.14 453.038879
19.15 450.707764
19.16 446.011139
19.17 442.905365
19.18 450.462311
19.19 455.512299
19.20 450.068512
19.21 445.387726
19.22 447.59259
19.23 447.737244
19.24 451.987793
19.25 456.526794
19.26 453.210602
19.27 447.500305
19.28 447.677948
19.29 450.191742
19.30 450.11203
19.31 456.562531
19.32 452.788635
19.33 447.496704
19.34 453.171448
19.35 452.188385
19.36 446.378357
19.37 448.243164
19.38 456.459229
19.39 463.452576
19.40 464.294037
19.41 460.672607
19.42 458.339783
19.43 461.497864
19.44 465.466248
19.45 468.100159
19.46 471.343781
19.47 470.984436
19.48 467.661743
19.49 469.821014
19.50 462.798431
19.51 453.010223
19.52 462.729675
19.53 474.9505
19.54 479.225098
19.55 479.090332
19.56 470.941071
19.57 466.698425
19.58 468.28183
19.59 471.569122
19.60 472.231689
19.61 468.895172
19.62 463.16922
19.63 464.517212
19.64 476.482544
19.65 486.447235
19.66 478.170166
19.67 466.170227
19.68 466.980408
19.69 469.846252
19.70 470.275574
19.71 474.090149
19.72 478.045013
19.73 470.328461
19.74 467.195251
19.75 480.456543
19.76 486.377563
19.77 486.906586
19.78 486.763306
19.79 483.570953
19.80 481.246399
19.81 487.866974
19.82 486.720917
19.83 475.878082
19.84 478.014954
19.85 478.273743
19.86 479.553436
19.87 486.50766
19.88 492.17215
19.89 488.015015
19.90 485.975372
19.91 488.474213
19.92 494.920746
19.93 488.529388
19.94 484.739319
19.95 485.369537
19.96 476.828888
19.97 473.373505
19.98 482.658386
19.99 491.132599
20.00 489.686798
20.01 488.088806
20.02 483.155853
20.03 478.770172
20.04 481.330658
20.05 482.560333
20.06 487.017761
20.07 492.586945
20.08 496.302979
20.09 496.996613
20.10 496.757019
20.11 500.37384
20.12 504.391266
20.13 496.402771
20.14 494.602936
20.15 499.213165
20.16 504.113953
20.17 508.16394
20.18 511.608521
20.19 515.104553
20.20 517.067505
20.21 513.307434
20.22 504.475586
20.23 496.096039
20.24 502.856445
20.25 509.158722
20.26 511.888977
20.27 515.798645
20.28 504.269867
20.29 492.9198
20.30 494.933594
20.31 497.012177
20.32 507.960083
20.33 520.928101
20.34 524.465698
20.35 522.379822
20.36 518.799072
20.37 512.521973
20.38 509.581573
20.39 504.459686
20.40 497.070374
20.41 504.551117
20.42 506.784698
20.43 510.014221
20.44 516.306458
20.45 508.309631
20.46 510.469025
20.47 510.177338
20.48 512.637329
20.49 524.492004
20.50 524.960022
20.51 518.127197
20.52 510.05957
20.53 511.845062
20.54 527.26886
20.55 532.554138
20.56 522.802856
20.57 519.09259
20.58 524.873962
20.59 528.041626
20.60 529.224121
20.61 521.344421
20.62 519.927246
20.63 524.125183
20.64 528.754944
20.65 536.087585
20.66 543.266357
20.67 543.159424
20.68 542.384705
20.69 544.121826
20.70 536.654297
20.71 525.661987
20.72 521.714111
20.73 525.95105
20.74 528.656555
20.75 523.449951
20.76 526.386597
20.77 527.525879
20.78 531.729736
20.79 536.573914
20.80 536.234619
20.81 540.197632
20.82 536.957214
20.83 530.168274
20.84 531.285522
20.85 537.645813
20.86 540.864929
20.87 543.227478
20.88 552.852112
