!@!!GADDS PLOTSO FILE: Chi integration type
!@!!Title/SampleName: ML_MAPbX3
!@!!User: NREL
!@!!Site: NREL SERF C211; SN 2510
!@!!Frame: 081022_MLProject_000_006.gfrm
!@!!Wavelengths    1.54184   1.54056   1.54439
!@!!Frame angles: 2Theta: 28.000 Omega: 5.000 Phi: 0.000 Chi: 90.000
!@!!Integration range: 2Theta: 10.000 to 41.100  Gamma: -120.400 to -60.400
!@!!Integration method: bin normalized
!@!N
!@!SS
!@!M
!@!L 0.0 0.0 0.0 0.0
!@!XDegrees
!@!YCounts
10.00 247.002975
10.01 250.377182
10.02 242.376144
10.03 227.149765
10.04 226.650848
10.05 230.212418
10.06 220.410843
10.07 218.355225
10.08 226.937958
10.09 222.718658
10.10 217.737289
10.11 217.666519
10.12 225.592331
10.13 231.956223
10.14 226.774368
10.15 225.500931
10.16 225.470093
10.17 224.45932
10.18 226.908569
10.19 229.285248
10.20 229.401016
10.21 229.552887
10.22 226.015152
10.23 228.591537
10.24 235.126678
10.25 230.018036
10.26 238.144623
10.27 249.954697
10.28 240.770538
10.29 237.496078
10.30 244.667633
10.31 245.41124
10.32 237.94902
10.33 228.175858
10.34 224.685913
10.35 231.411331
10.36 235.471039
10.37 232.666443
10.38 226.678207
10.39 220.519028
10.40 227.065414
10.41 229.626495
10.42 223.648804
10.43 224.562027
10.44 225.278122
10.45 222.594879
10.46 216.86232
10.47 224.9487
10.48 224.82692
10.49 224.851486
10.50 239.37114
10.51 238.501434
10.52 229.361084
10.53 238.972351
10.54 248.242416
10.55 247.591476
10.56 243.623474
10.57 236.039276
10.58 232.902451
10.59 233.225937
10.60 238.69989
10.61 246.550644
10.62 245.183044
10.63 242.654663
10.64 247.987915
10.65 245.002502
10.66 244.006378
10.67 243.411514
10.68 244.106003
10.69 248.966034
10.70 253.525085
10.71 249.460907
10.72 238.572968
10.73 232.592606
10.74 230.935516
10.75 233.647308
10.76 241.520752
10.77 251.196609
10.78 247.796494
10.79 237.242874
10.80 227.969208
10.81 228.515366
10.82 232.724289
10.83 232.230576
10.84 236.53508
10.85 237.306213
10.86 246.918594
10.87 252.25
10.88 248.233261
10.89 249.659698
10.90 250.565948
10.91 251.778
10.92 253.083725
10.93 247.719009
10.94 246.578918
10.95 250.770889
10.96 246.1978
10.97 246.224564
10.98 245.38591
10.99 241.124588
11.00 243.724838
11.01 250.204605
11.02 248.077057
11.03 242.163208
11.04 246.016052
11.05 249.112488
11.06 242.890549
11.07 240.262939
11.08 247.301682
11.09 251.503326
11.10 255.132065
11.11 255.28479
11.12 257.465332
11.13 249.295242
11.14 242.211639
11.15 245.26445
11.16 242.59639
11.17 237.476151
11.18 234.983902
11.19 242.221268
11.20 246.900345
11.21 249.551239
11.22 252.935944
11.23 253.394409
11.24 252.737015
11.25 250.12941
11.26 248.979874
11.27 246.789871
11.28 247.873611
11.29 252.762833
11.30 258.824554
11.31 262.899445
11.32 255.4039
11.33 249.703583
11.34 250.767105
11.35 251.804245
11.36 250.165878
11.37 253.382721
11.38 250.436096
11.39 250.31572
11.40 254.456909
11.41 252.539688
11.42 251.776199
11.43 254.122833
11.44 256.314911
11.45 258.75177
11.46 267.273834
11.47 268.658752
11.48 263.463562
11.49 261.121368
11.50 255.192963
11.51 252.780914
11.52 257.037415
11.53 252.071045
11.54 250.405502
11.55 257.348663
11.56 254.169739
11.57 246.91626
11.58 251.511383
11.59 256.407745
11.60 262.282532
11.61 260.640533
11.62 258.988953
11.63 259.982239
11.64 256.33252
11.65 259.973999
11.66 260.291962
11.67 261.185913
11.68 268.064819
11.69 270.374969
11.70 265.231537
11.71 262.540161
11.72 262.028595
11.73 254.50441
11.74 257.89389
11.75 264.699799
11.76 265.462158
11.77 260.746826
11.78 264.954407
11.79 269.161957
11.80 262.020294
11.81 261.533051
11.82 261.565948
11.83 261.045441
11.84 265.018616
11.85 261.357941
11.86 256.259521
11.87 256.324188
11.88 252.815094
11.89 250.173447
11.90 259.072998
11.91 263.667023
11.92 261.172455
11.93 266.583862
11.94 272.735352
11.95 265.880737
11.96 258.44278
11.97 263.343811
11.98 265.924011
11.99 266.880676
12.00 267.790802
12.01 261.372711
12.02 258.305817
12.03 263.990784
12.04 268.960297
12.05 270.971344
12.06 265.011505
12.07 261.063721
12.08 262.240173
12.09 264.860626
12.10 272.245331
12.11 268.896301
12.12 266.51944
12.13 271.134003
12.14 274.974396
12.15 274.520813
12.16 270.004578
12.17 267.709564
12.18 263.779236
12.19 263.595825
12.20 265.71347
12.21 275.860321
12.22 285.656036
12.23 290.586456
12.24 294.118134
12.25 288.73233
12.26 283.352081
12.27 275.523315
12.28 268.09256
12.29 270.562012
12.30 274.983887
12.31 273.4823
12.32 280.101746
12.33 289.392548
12.34 287.318787
12.35 280.884766
12.36 279.459106
12.37 283.643433
12.38 285.973724
12.39 278.107697
12.40 277.364258
12.41 281.882599
12.42 281.762512
12.43 282.286987
12.44 282.094818
12.45 283.96936
12.46 287.017883
12.47 282.178223
12.48 278.893005
12.49 287.199982
12.50 290.041992
12.51 279.963776
12.52 272.942291
12.53 274.838379
12.54 273.901855
12.55 276.353241
12.56 284.379639
12.57 289.173309
12.58 294.35733
12.59 294.267944
12.60 293.970734
12.61 300.141357
12.62 298.500488
12.63 296.2341
12.64 299.48938
12.65 302.321564
12.66 306.480499
12.67 311.882446
12.68 309.473267
12.69 307.249756
12.70 302.977264
12.71 291.149109
12.72 287.620758
12.73 286.954498
12.74 291.174103
12.75 304.034698
12.76 307.837311
12.77 302.168701
12.78 300.14621
12.79 300.508545
12.80 296.638
12.81 296.483826
12.82 302.221649
12.83 305.870758
12.84 313.909576
12.85 316.757965
12.86 308.346985
12.87 309.48877
12.88 303.756378
12.89 293.287537
12.90 294.923706
12.91 297.126099
12.92 299.958221
12.93 298.546509
12.94 296.078979
12.95 306.469788
12.96 313.218048
12.97 309.021515
12.98 300.686859
12.99 291.651306
13.00 287.357605
13.01 293.454803
13.02 295.553497
13.03 292.914703
13.04 291.023071
13.05 290.698517
13.06 289.76123
13.07 295.080688
13.08 302.517334
13.09 296.117126
13.10 294.621918
13.11 299.325134
13.12 292.041809
13.13 284.915009
13.14 281.651306
13.15 284.428802
13.16 298.994263
13.17 297.155853
13.18 284.537109
13.19 285.350647
13.20 285.928589
13.21 291.932159
13.22 296.763214
13.23 298.33078
13.24 297.322449
13.25 285.8508
13.26 286.368225
13.27 291.487
13.28 288.199585
13.29 285.994385
13.30 281.103088
13.31 286.914886
13.32 289.246857
13.33 288.267883
13.34 283.523163
13.35 278.428772
13.36 280.921326
13.37 278.649719
13.38 287.414917
13.39 297.966278
13.40 297.892334
13.41 290.198334
13.42 288.246918
13.43 290.838013
13.44 292.062225
13.45 291.352142
13.46 284.009338
13.47 290.289551
13.48 302.418854
13.49 296.855774
13.50 296.122131
13.51 300.479767
13.52 299.60321
13.53 303.771851
13.54 301.966522
13.55 299.571808
13.56 304.679352
13.57 311.940674
13.58 308.995453
13.59 300.669373
13.60 301.762207
13.61 299.880219
13.62 297.582916
13.63 300.272125
13.64 298.644836
13.65 299.17926
13.66 307.509613
13.67 309.414734
13.68 313.258575
13.69 316.50354
13.70 311.409302
13.71 302.778961
13.72 292.353088
13.73 291.549683
13.74 301.141754
13.75 306.362671
13.76 307.192505
13.77 310.610748
13.78 313.714447
13.79 313.336823
13.80 306.684723
13.81 295.856171
13.82 299.989044
13.83 313.251709
13.84 311.557861
13.85 301.982086
13.86 304.460388
13.87 307.5672
13.88 309.657013
13.89 306.093689
13.90 304.237671
13.91 304.362244
13.92 299.517639
13.93 306.945587
13.94 316.105682
13.95 320.672363
13.96 317.017731
13.97 314.401398
13.98 319.032013
13.99 321.34436
14.00 313.289825
14.01 307.020386
14.02 317.786652
14.03 322.398956
14.04 313.954865
14.05 303.994324
14.06 306.822205
14.07 309.306519
14.08 312.10968
14.09 318.084534
14.10 315.124664
14.11 312.404877
14.12 308.804657
14.13 317.180206
14.14 330.601379
14.15 327.202057
14.16 319.122589
14.17 315.793182
14.18 316.352478
14.19 311.743652
14.20 318.549896
14.21 324.952942
14.22 317.564392
14.23 321.334564
14.24 324.72995
14.25 327.731201
14.26 333.771881
14.27 341.868774
14.28 344.564728
14.29 345.144043
14.30 341.993988
14.31 333.141388
14.32 340.963257
14.33 347.698181
14.34 348.820923
14.35 353.515045
14.36 356.692108
14.37 352.828522
14.38 354.894531
14.39 359.668793
14.40 357.723999
14.41 361.273987
14.42 367.315277
14.43 372.526794
14.44 377.985718
14.45 385.170166
14.46 392.011597
14.47 392.722504
14.48 392.002258
14.49 397.061981
14.50 403.791107
14.51 414.723145
14.52 424.603424
14.53 426.243011
14.54 419.019104
14.55 416.276245
14.56 411.716858
14.57 411.557892
14.58 413.498535
14.59 409.109222
14.60 419.681274
14.61 432.234192
14.62 431.432343
14.63 430.19632
14.64 432.47525
14.65 420.20224
14.66 414.728333
14.67 414.339447
14.68 419.796692
14.69 423.759827
14.70 424.119476
14.71 425.17688
14.72 421.841919
14.73 427.133545
14.74 425.461884
14.75 419.832581
14.76 413.050781
14.77 411.501617
14.78 416.647217
14.79 413.959229
14.80 411.253052
14.81 420.108765
14.82 421.667877
14.83 416.222961
14.84 411.232574
14.85 410.35437
14.86 411.681183
14.87 418.325562
14.88 414.263916
14.89 421.859344
14.90 431.692047
14.91 433.607483
14.92 431.872223
14.93 437.105347
14.94 444.698883
14.95 447.957062
14.96 461.524689
14.97 470.27301
14.98 475.976898
14.99 471.823029
15.00 464.29068
15.01 462.334198
15.02 475.308685
15.03 486.329498
15.04 497.189941
15.05 506.112427
15.06 515.314941
15.07 524.575562
15.08 530.270386
15.09 535.042786
15.10 557.665161
15.11 569.39856
15.12 581.034973
15.13 594.843018
15.14 603.40332
15.15 629.081543
15.16 641.739929
15.17 652.269958
15.18 653.483398
15.19 663.515503
15.20 672.072266
15.21 703.283508
15.22 727.602539
15.23 762.098572
15.24 793.779297
15.25 828.166992
15.26 845.025452
15.27 861.741638
15.28 890.385681
15.29 897.006348
15.30 915.456787
15.31 937.256531
15.32 973.826538
15.33 996.913574
15.34 1036.189331
15.35 1056.555542
15.36 1072.522339
15.37 1078.220703
15.38 1095.03894
15.39 1109.418091
15.40 1129.598877
15.41 1149.185913
15.42 1152.727783
15.43 1156.359619
15.44 1157.789551
15.45 1148.261963
15.46 1144.292114
15.47 1139.084351
15.48 1109.705566
15.49 1064.484863
15.50 1053.196533
15.51 993.826965
15.52 961.402222
15.53 919.054932
15.54 890.4198
15.55 865.106567
15.56 854.908386
15.57 809.949646
15.58 772.196228
15.59 751.450745
15.60 710.345215
15.61 670.639404
15.62 640.45636
15.63 630.795959
15.64 603.798279
15.65 585.297363
15.66 572.006592
15.67 557.391724
15.68 521.23761
15.69 515.088013
15.70 496.944458
15.71 481.65802
15.72 474.389557
15.73 464.173584
15.74 458.231842
15.75 451.680145
15.76 441.602356
15.77 444.791779
15.78 445.291718
15.79 431.288696
15.80 427.130585
15.81 423.813263
15.82 414.765869
15.83 402.074921
15.84 402.696747
15.85 405.015015
15.86 413.976196
15.87 417.734192
15.88 414.944122
15.89 400.781586
15.90 392.075836
15.91 388.692505
15.92 386.704895
15.93 387.712402
15.94 384.287811
15.95 384.716156
15.96 384.775482
15.97 387.521149
15.98 383.905945
15.99 378.374146
16.00 372.570007
16.01 367.347321
16.02 367.878571
16.03 368.636322
16.04 364.56839
16.05 362.822876
16.06 368.252502
16.07 366.681549
16.08 358.543396
16.09 356.781006
16.10 360.993958
16.11 368.879639
16.12 374.016663
16.13 365.547729
16.14 361.610596
16.15 362.197418
16.16 355.753296
16.17 352.117859
16.18 352.365265
16.19 361.552704
16.20 360.015564
16.21 351.609436
16.22 346.675629
16.23 352.048401
16.24 360.299927
16.25 351.937897
16.26 347.805115
16.27 346.039276
16.28 345.460022
16.29 346.186188
16.30 351.613739
16.31 348.756165
16.32 339.969604
16.33 349.306366
16.34 353.220764
16.35 350.306702
16.36 356.6026
16.37 354.094482
16.38 353.329193
16.39 353.732452
16.40 350.218506
16.41 348.382996
16.42 345.490753
16.43 346.350067
16.44 349.880615
16.45 348.940094
16.46 342.732178
16.47 339.96106
16.48 340.655518
16.49 343.235504
16.50 343.156494
16.51 347.058472
16.52 354.629639
16.53 354.966675
16.54 356.417908
16.55 351.978302
16.56 348.677155
16.57 351.722931
16.58 355.267059
16.59 349.152802
16.60 340.323669
16.61 342.71637
16.62 345.279785
16.63 343.695618
16.64 347.545013
16.65 354.312653
16.66 356.086212
16.67 356.795563
16.68 356.011353
16.69 356.684509
16.70 354.707184
16.71 348.767273
16.72 350.62619
16.73 353.034149
16.74 357.879517
16.75 358.977325
16.76 349.654327
16.77 341.803589
16.78 340.60022
16.79 336.803711
16.80 334.40152
16.81 342.782593
16.82 352.235291
16.83 350.020752
16.84 347.296478
16.85 353.286774
16.86 351.359375
16.87 354.738251
16.88 357.508301
16.89 351.853424
16.90 350.553772
16.91 344.598267
16.92 348.291351
16.93 349.922424
16.94 347.701447
16.95 352.259155
16.96 352.768921
16.97 348.327698
16.98 350.195374
16.99 346.953735
17.00 337.322327
17.01 337.309998
17.02 341.354767
17.03 350.020782
17.04 359.17337
17.05 356.981781
17.06 352.449585
17.07 355.506073
17.08 353.924042
17.09 351.238373
17.10 352.043915
17.11 347.583405
17.12 344.237701
17.13 349.587189
17.14 358.419159
17.15 357.770416
17.16 360.266113
17.17 362.181244
17.18 358.763611
17.19 354.152313
17.20 346.726501
17.21 347.375824
17.22 352.933411
17.23 350.604156
17.24 342.860992
17.25 352.131134
17.26 361.243439
17.27 364.385376
17.28 370.040436
17.29 366.270142
17.30 364.408783
17.31 366.499146
17.32 361.076569
17.33 354.650421
17.34 357.698822
17.35 362.168884
17.36 362.122589
17.37 362.612823
17.38 358.667145
17.39 352.255402
17.40 355.1922
17.41 362.176971
17.42 355.293945
17.43 351.101288
17.44 352.34845
17.45 353.193085
17.46 356.094727
17.47 359.564819
17.48 360.517609
17.49 353.028839
17.50 356.280853
17.51 365.905029
17.52 363.297699
17.53 365.210815
17.54 365.763397
17.55 367.222961
17.56 370.001129
17.57 360.571808
17.58 362.149963
17.59 363.02533
17.60 369.837341
17.61 372.148254
17.62 372.606354
17.63 374.461823
17.64 365.095856
17.65 358.064453
17.66 359.607056
17.67 366.410065
17.68 366.773132
17.69 372.277374
17.70 373.761932
17.71 365.748169
17.72 365.152405
17.73 366.020111
17.74 372.123779
17.75 380.429596
17.76 382.3237
17.77 380.321045
17.78 376.608734
17.79 376.082214
17.80 373.882599
17.81 374.700897
17.82 379.089813
17.83 383.026398
17.84 381.193512
17.85 380.758606
17.86 379.675629
17.87 379.337463
17.88 383.198761
17.89 386.507141
17.90 382.493805
17.91 379.619507
17.92 375.929138
17.93 376.411255
17.94 384.039398
17.95 382.100067
17.96 375.897888
17.97 376.908295
17.98 382.337952
17.99 381.75293
18.00 381.371033
18.01 384.456268
18.02 384.203125
18.03 381.759521
18.04 380.564331
18.05 383.093567
18.06 380.324097
18.07 375.992554
18.08 380.353729
18.09 384.246246
18.10 389.694031
18.11 389.881714
18.12 389.188934
18.13 392.648041
18.14 394.165985
18.15 385.290985
18.16 378.891418
18.17 373.743439
18.18 370.917786
18.19 373.481293
18.20 378.919403
18.21 390.948181
18.22 393.45343
18.23 385.379944
18.24 384.892273
18.25 386.016937
18.26 388.320587
18.27 393.925842
18.28 398.090759
18.29 393.377289
18.30 385.235413
18.31 395.362823
18.32 399.098022
18.33 395.812317
18.34 397.367523
18.35 396.726593
18.36 393.667664
18.37 387.281494
18.38 381.631927
18.39 381.442505
18.40 388.883392
18.41 397.39856
18.42 395.512939
18.43 394.835754
18.44 396.764282
18.45 400.209564
18.46 400.212677
18.47 395.045532
18.48 389.556854
18.49 390.464691
18.50 402.10791
18.51 414.454498
18.52 415.234039
18.53 406.858795
18.54 402.602631
18.55 404.615509
18.56 407.785828
18.57 407.010834
18.58 403.234497
18.59 401.942657
18.60 400.165222
18.61 399.374664
18.62 396.35318
18.63 391.43045
18.64 393.655365
18.65 398.86142
18.66 398.901062
18.67 401.901825
18.68 402.477905
18.69 398.455566
18.70 398.372711
18.71 398.952728
18.72 404.187073
18.73 408.117615
18.74 404.486053
18.75 400.944824
18.76 407.230835
18.77 405.440704
18.78 402.41507
18.79 395.376709
18.80 384.280457
18.81 385.217102
18.82 401.098969
18.83 413.390045
18.84 412.545776
18.85 408.426666
18.86 403.25235
18.87 401.695679
18.88 405.402374
18.89 411.92157
18.90 416.699188
18.91 413.758148
18.92 411.336487
18.93 406.077026
18.94 402.465668
18.95 404.332001
18.96 402.214508
18.97 394.103912
18.98 395.837494
18.99 398.396362
19.00 392.166534
19.01 398.177704
19.02 400.628265
19.03 400.377075
19.04 399.474152
19.05 400.462585
19.06 403.094391
19.07 410.005127
19.08 412.633026
19.09 414.514862
19.10 412.067932
19.11 403.556396
19.12 409.598816
19.13 417.737915
19.14 421.563629
19.15 417.288635
19.16 411.920532
19.17 410.383484
19.18 406.910736
19.19 408.973724
19.20 411.993073
19.21 408.641754
19.22 407.998657
19.23 411.925354
19.24 419.677765
19.25 423.545013
19.26 419.360748
19.27 416.854584
19.28 423.928101
19.29 426.824493
19.30 421.255249
19.31 423.784302
19.32 422.326019
19.33 421.204132
19.34 423.434784
19.35 423.678497
19.36 428.39679
19.37 424.790985
19.38 421.294525
19.39 423.249359
19.40 438.718323
19.41 444.656128
19.42 436.075897
19.43 430.743835
19.44 430.142059
19.45 427.292084
19.46 431.982758
19.47 437.793243
19.48 434.767181
19.49 436.557068
19.50 435.762665
19.51 433.388062
19.52 430.322845
19.53 432.060028
19.54 433.470245
19.55 432.91037
19.56 436.127319
19.57 435.076019
19.58 430.629791
19.59 430.686646
19.60 435.518707
19.61 441.763123
19.62 438.099365
19.63 434.227692
19.64 441.93042
19.65 440.14212
19.66 431.180634
19.67 427.609009
19.68 424.091583
19.69 433.040863
19.70 442.051575
19.71 442.863098
19.72 444.607788
19.73 441.874237
19.74 440.962982
19.75 441.202148
19.76 438.561035
19.77 437.775085
19.78 445.480042
19.79 452.253265
19.80 448.96167
19.81 447.777344
19.82 442.988983
19.83 443.704987
19.84 448.780182
19.85 445.182922
19.86 442.746704
19.87 447.80603
19.88 443.2099
19.89 434.890808
19.90 436.77182
19.91 441.641052
19.92 444.820374
19.93 443.378571
19.94 446.210052
19.95 457.720551
19.96 455.53894
19.97 449.00708
19.98 449.321655
19.99 450.147247
20.00 449.434082
20.01 440.824005
20.02 440.175507
20.03 438.936584
20.04 434.818848
20.05 443.187286
20.06 447.679657
20.07 446.855743
20.08 456.876404
20.09 463.292877
20.10 458.948303
20.11 460.19223
20.12 463.035767
20.13 461.890198
20.14 461.085541
20.15 457.952209
20.16 456.403107
20.17 457.492004
20.18 462.044342
20.19 464.682648
20.20 465.661102
20.21 466.47467
20.22 461.17688
20.23 455.29715
20.24 452.134064
20.25 451.402557
20.26 464.756989
20.27 469.19397
20.28 462.56665
20.29 460.493042
20.30 460.492615
20.31 460.028442
20.32 462.466492
20.33 469.483154
20.34 474.616516
20.35 474.610535
20.36 473.145447
20.37 470.966064
20.38 476.072754
20.39 477.55661
20.40 472.34729
20.41 474.78949
20.42 477.407013
20.43 472.881622
20.44 470.810577
20.45 475.005432
20.46 476.32431
20.47 481.373047
20.48 493.342285
20.49 492.493652
20.50 483.042725
20.51 481.955688
20.52 482.547333
20.53 472.732788
20.54 461.93576
20.55 460.999908
20.56 464.994934
20.57 470.912689
20.58 468.967133
20.59 473.499084
20.60 482.041443
20.61 478.020386
20.62 473.255249
20.63 468.567413
20.64 466.670959
20.65 469.812439
20.66 476.387604
20.67 479.895721
20.68 480.747955
20.69 487.702972
20.70 485.485565
20.71 488.390167
20.72 495.391449
20.73 494.541443
20.74 495.504181
20.75 499.14328
20.76 499.175323
20.77 506.353485
20.78 504.236206
20.79 494.685883
20.80 490.615479
20.81 487.980011
20.82 487.711792
20.83 488.59549
20.84 492.198517
20.85 491.411133
20.86 489.079346
20.87 493.064819
20.88 497.739868
20.89 501.059479
20.90 499.534271
