!@!!GADDS PLOTSO FILE: Chi integration type
!@!!Title/SampleName: ML_MAPbX3
!@!!User: NREL
!@!!Site: NREL SERF C211; SN 2510
!@!!Frame: 081022_MLProject_000_010.gfrm
!@!!Wavelengths    1.54184   1.54056   1.54439
!@!!Frame angles: 2Theta: 28.000 Omega: 5.000 Phi: 0.000 Chi: 90.000
!@!!Integration range: 2Theta: 10.000 to 41.100  Gamma: -120.400 to -60.400
!@!!Integration method: bin normalized
!@!N
!@!SS
!@!M
!@!L 0.0 0.0 0.0 0.0
!@!XDegrees
!@!YCounts
10.00 221.434647
10.01 221.376816
10.02 228.864349
10.03 228.707687
10.04 231.030563
10.05 229.927338
10.06 222.162537
10.07 216.553436
10.08 220.478775
10.09 224.081131
10.10 224.583755
10.11 241.764984
10.12 247.154037
10.13 241.595108
10.14 246.2229
10.15 240.642731
10.16 234.01973
10.17 229.170883
10.18 226.059525
10.19 236.425827
10.20 247.762329
10.21 248.539825
10.22 239.293579
10.23 231.154358
10.24 230.174942
10.25 234.79483
10.26 232.944962
10.27 237.458618
10.28 245.870453
10.29 245.757767
10.30 243.904327
10.31 239.28392
10.32 243.259232
10.33 242.982239
10.34 242.876984
10.35 247.084198
10.36 240.630905
10.37 237.505371
10.38 239.084503
10.39 239.765945
10.40 238.803955
10.41 242.523666
10.42 236.638733
10.43 228.350906
10.44 235.460068
10.45 243.052551
10.46 248.628799
10.47 250.155762
10.48 247.107086
10.49 244.430466
10.50 236.560013
10.51 236.845963
10.52 236.705856
10.53 233.090927
10.54 230.338806
10.55 221.847656
10.56 226.778305
10.57 236.321823
10.58 238.066971
10.59 235.621002
10.60 238.131073
10.61 239.049011
10.62 237.450531
10.63 238.43457
10.64 232.509872
10.65 226.886002
10.66 228.983719
10.67 237.224487
10.68 243.968475
10.69 239.601257
10.70 237.272446
10.71 240.758774
10.72 241.420212
10.73 244.738098
10.74 245.994339
10.75 248.739212
10.76 256.811737
10.77 258.0802
10.78 260.025299
10.79 262.693756
10.80 255.647476
10.81 251.762131
10.82 250.643356
10.83 244.155212
10.84 241.545715
10.85 238.835495
10.86 241.941528
10.87 247.804367
10.88 247.255264
10.89 251.839233
10.90 252.89209
10.91 251.032242
10.92 247.969528
10.93 242.760513
10.94 245.866791
10.95 249.02652
10.96 246.940521
10.97 248.047211
10.98 252.598969
10.99 253.694794
11.00 252.697052
11.01 255.644165
11.02 254.179306
11.03 253.707336
11.04 252.451447
11.05 249.978317
11.06 251.475769
11.07 247.987671
11.08 247.087814
11.09 247.641083
11.10 252.456497
11.11 257.92099
11.12 257.891113
11.13 253.515015
11.14 259.032227
11.15 262.9505
11.16 256.305664
11.17 250.723557
11.18 246.674744
11.19 247.588318
11.20 258.249054
11.21 258.691711
11.22 248.423935
11.23 248.535599
11.24 254.856064
11.25 255.755493
11.26 254.405426
11.27 250.775558
11.28 243.677521
11.29 240.96489
11.30 242.436768
11.31 247.556763
11.32 249.758011
11.33 252.461365
11.34 255.54837
11.35 257.528137
11.36 255.892014
11.37 252.741623
11.38 254.251083
11.39 252.209549
11.40 245.230896
11.41 246.184921
11.42 247.362961
11.43 243.133926
11.44 248.976791
11.45 248.531082
11.46 253.796982
11.47 265.374664
11.48 261.578949
11.49 261.795807
11.50 263.628601
11.51 259.328247
11.52 259.724792
11.53 249.479721
11.54 244.083588
11.55 254.668716
11.56 261.833435
11.57 262.833435
11.58 260.492798
11.59 252.335312
11.60 248.952209
11.61 255.495499
11.62 253.260757
11.63 258.555878
11.64 259.270081
11.65 256.89798
11.66 255.033066
11.67 260.252533
11.68 272.695679
11.69 266.518829
11.70 265.616486
11.71 271.728851
11.72 269.323944
11.73 265.727051
11.74 265.874786
11.75 266.210541
11.76 260.793274
11.77 255.46106
11.78 251.909515
11.79 253.905823
11.80 258.462677
11.81 261.95047
11.82 262.285522
11.83 265.74234
11.84 272.213654
11.85 270.644653
11.86 269.422485
11.87 273.232452
11.88 280.651642
11.89 282.227875
11.90 277.620667
11.91 274.152252
11.92 266.35141
11.93 261.377594
11.94 260.987732
11.95 261.516663
11.96 257.620728
11.97 260.397461
11.98 265.770203
11.99 266.503693
12.00 270.114136
12.01 271.930389
12.02 269.138702
12.03 266.164703
12.04 268.826233
12.05 275.565887
12.06 272.384033
12.07 267.349335
12.08 270.72879
12.09 271.233521
12.10 273.632568
12.11 282.895569
12.12 286.738983
12.13 285.307861
12.14 284.094177
12.15 278.640778
12.16 281.407074
12.17 289.275391
12.18 288.074707
12.19 277.021393
12.20 270.122345
12.21 270.870178
12.22 278.266388
12.23 283.297455
12.24 281.102142
12.25 277.407288
12.26 274.277618
12.27 282.119293
12.28 282.166046
12.29 284.188416
12.30 291.91217
12.31 279.848602
12.32 266.294189
12.33 272.082245
12.34 274.29364
12.35 275.543488
12.36 288.501648
12.37 290.535736
12.38 291.748077
12.39 299.49115
12.40 304.034454
12.41 301.244904
12.42 296.971741
12.43 299.091797
12.44 301.249908
12.45 299.535248
12.46 297.45639
12.47 303.055145
12.48 305.231628
12.49 298.917114
12.50 288.332458
12.51 287.309021
12.52 297.222656
12.53 295.732605
12.54 289.81369
12.55 293.255371
12.56 296.607819
12.57 297.768311
12.58 297.623596
12.59 294.625793
12.60 290.187744
12.61 285.075104
12.62 285.277313
12.63 291.080109
12.64 292.837006
12.65 292.840576
12.66 294.772858
12.67 293.986694
12.68 285.979034
12.69 284.063904
12.70 290.748047
12.71 293.188354
12.72 285.605377
12.73 280.90274
12.74 288.403931
12.75 289.054382
12.76 290.795837
12.77 299.805939
12.78 302.975739
12.79 300.101501
12.80 299.69693
12.81 291.918518
12.82 279.276672
12.83 290.463226
12.84 300.025543
12.85 286.701233
12.86 277.038116
12.87 272.518188
12.88 280.835052
12.89 287.203705
12.90 287.331848
12.91 281.067505
12.92 281.499359
12.93 296.933533
12.94 299.043152
12.95 290.190582
12.96 285.467346
12.97 290.693176
12.98 288.302399
12.99 280.765076
13.00 282.562195
13.01 281.907257
13.02 282.010254
13.03 286.460083
13.04 281.488708
13.05 278.572998
13.06 283.84201
13.07 290.685394
13.08 294.573151
13.09 290.071808
13.10 291.155151
13.11 288.360901
13.12 288.637939
13.13 300.354156
13.14 294.256012
13.15 289.258942
13.16 286.224731
13.17 287.23111
13.18 291.266693
13.19 285.342957
13.20 284.545135
13.21 282.60321
13.22 277.962616
13.23 277.930878
13.24 280.460663
13.25 286.728333
13.26 296.205261
13.27 298.841217
13.28 293.297943
13.29 285.5177
13.30 280.357513
13.31 282.924652
13.32 295.774506
13.33 306.948486
13.34 304.56366
13.35 306.256744
13.36 306.111633
13.37 293.603699
13.38 285.898163
13.39 292.514648
13.40 303.985992
13.41 304.290649
13.42 302.071869
13.43 304.253448
13.44 301.70108
13.45 300.60733
13.46 307.850128
13.47 300.802948
13.48 295.216827
13.49 300.165649
13.50 301.994568
13.51 305.222229
13.52 308.086914
13.53 305.319977
13.54 306.358643
13.55 308.858032
13.56 309.099274
13.57 311.804749
13.58 304.929779
13.59 301.085297
13.60 306.571136
13.61 299.881409
13.62 289.260803
13.63 297.421936
13.64 308.479248
13.65 306.195343
13.66 308.355774
13.67 322.567108
13.68 329.019165
13.69 336.030884
13.70 344.265564
13.71 346.712708
13.72 343.809723
13.73 336.545441
13.74 336.819611
13.75 338.055817
13.76 340.629211
13.77 346.926788
13.78 345.21402
13.79 355.338196
13.80 353.527954
13.81 345.638428
13.82 355.944305
13.83 371.884125
13.84 384.145325
13.85 390.702759
13.86 398.613831
13.87 400.948547
13.88 396.465729
13.89 395.281555
13.90 400.169861
13.91 408.576752
13.92 415.947144
13.93 417.369843
13.94 424.010284
13.95 433.04129
13.96 442.327881
13.97 449.628601
13.98 456.016296
13.99 453.596283
14.00 455.608795
14.01 472.405334
14.02 489.49295
14.03 500.811493
14.04 502.87735
14.05 504.284119
14.06 513.842529
14.07 527.443359
14.08 534.6875
14.09 546.332825
14.10 574.805054
14.11 604.488037
14.12 614.377869
14.13 633.523132
14.14 644.088196
14.15 649.182617
14.16 672.198853
14.17 697.728088
14.18 713.692871
14.19 734.701782
14.20 756.412292
14.21 771.279602
14.22 795.841858
14.23 820.673401
14.24 853.212341
14.25 882.608093
14.26 902.628235
14.27 915.716553
14.28 941.774292
14.29 957.706909
14.30 966.603516
14.31 976.947571
14.32 1019.089783
14.33 1052.597168
14.34 1071.050415
14.35 1098.59021
14.36 1126.267212
14.37 1123.348999
14.38 1129.50647
14.39 1136.468262
14.40 1144.867188
14.41 1167.643555
14.42 1184.481689
14.43 1190.301636
14.44 1181.30127
14.45 1161.735718
14.46 1161.637451
14.47 1162.338989
14.48 1146.870117
14.49 1132.355591
14.50 1119.737305
14.51 1096.983154
14.52 1073.971069
14.53 1046.731934
14.54 1024.078003
14.55 983.057739
14.56 948.687317
14.57 905.903687
14.58 858.415039
14.59 827.980774
14.60 798.291992
14.61 776.011658
14.62 738.554749
14.63 705.398254
14.64 680.338074
14.65 650.812134
14.66 619.277588
14.67 600.234009
14.68 580.043152
14.69 561.671936
14.70 543.671143
14.71 527.634888
14.72 500.375305
14.73 487.069611
14.74 472.584839
14.75 456.870941
14.76 446.22171
14.77 430.36264
14.78 416.549072
14.79 420.870483
14.80 422.41922
14.81 414.430328
14.82 402.019592
14.83 388.371582
14.84 391.365479
14.85 389.901276
14.86 374.19101
14.87 366.343353
14.88 366.081573
14.89 363.465118
14.90 366.328888
14.91 367.378357
14.92 367.014679
14.93 362.859161
14.94 361.96933
14.95 365.956604
14.96 364.553528
14.97 361.116089
14.98 360.084015
14.99 358.07309
15.00 355.745056
15.01 355.687317
15.02 354.614471
15.03 357.550079
15.04 352.555725
15.05 348.112274
15.06 345.530609
15.07 341.292114
15.08 349.128448
15.09 355.820374
15.10 349.929321
15.11 346.468842
15.12 354.945648
15.13 359.629974
15.14 358.153412
15.15 357.984924
15.16 352.873413
15.17 347.466888
15.18 343.604797
15.19 349.174805
15.20 350.194
15.21 346.422577
15.22 350.774628
15.23 355.656891
15.24 355.88855
15.25 355.457703
15.26 362.875244
15.27 369.808075
15.28 370.259705
15.29 364.835999
15.30 359.320129
15.31 358.09906
15.32 361.05249
15.33 367.05484
15.34 376.973633
15.35 375.971252
15.36 377.335724
15.37 388.300659
15.38 388.301392
15.39 390.081757
15.40 388.950958
15.41 382.540497
15.42 383.110443
15.43 380.322266
15.44 365.999725
15.45 362.984436
15.46 379.16571
15.47 376.417145
15.48 366.707855
15.49 359.283691
15.50 350.196625
15.51 342.792786
15.52 336.634705
15.53 335.4104
15.54 339.949127
15.55 346.483215
15.56 352.476013
15.57 353.420898
15.58 343.903961
15.59 340.954773
15.60 345.310791
15.61 348.195526
15.62 343.793365
15.63 335.509003
15.64 326.724945
15.65 322.607727
15.66 323.540131
15.67 326.030334
15.68 329.274109
15.69 332.373962
15.70 331.997223
15.71 331.729462
15.72 334.996979
15.73 337.796844
15.74 335.670441
15.75 339.89151
15.76 341.876129
15.77 333.290192
15.78 331.120026
15.79 336.930908
15.80 338.003265
15.81 339.281982
15.82 340.148865
15.83 334.00592
15.84 329.399536
15.85 330.046906
15.86 337.146637
15.87 344.305786
15.88 340.465729
15.89 342.748688
15.90 344.423859
15.91 338.582123
15.92 332.570099
15.93 329.922089
15.94 332.492218
15.95 328.15567
15.96 335.091797
15.97 342.795807
15.98 336.164215
15.99 335.277313
16.00 335.861359
16.01 339.529755
16.02 339.779633
16.03 341.427734
16.04 338.379669
16.05 338.889282
16.06 341.624451
16.07 341.118225
16.08 342.997253
16.09 346.933502
16.10 341.113678
16.11 333.919861
16.12 338.892029
16.13 338.898987
16.14 345.918152
16.15 343.973633
16.16 340.126312
16.17 345.053772
16.18 351.187897
16.19 346.374786
16.20 334.507996
16.21 321.160889
16.22 311.453888
16.23 318.786743
16.24 330.321655
16.25 337.758942
16.26 343.150177
16.27 347.195709
16.28 344.016266
16.29 333.987274
16.30 331.244781
16.31 333.800079
16.32 333.861053
16.33 341.021179
16.34 345.048553
16.35 346.562073
16.36 345.444885
16.37 347.823425
16.38 358.656281
16.39 357.540527
16.40 349.259216
16.41 348.655121
16.42 339.121002
16.43 337.874634
16.44 346.582458
16.45 344.6492
16.46 347.577423
16.47 347.612457
16.48 338.325745
16.49 332.629059
16.50 338.608337
16.51 341.033325
16.52 337.83902
16.53 341.842224
16.54 345.151123
16.55 346.037933
16.56 347.091461
16.57 343.722443
16.58 346.634857
16.59 352.347656
16.60 356.215973
16.61 356.835846
16.62 348.639343
16.63 347.991272
16.64 355.722076
16.65 356.466095
16.66 359.450378
16.67 357.499207
16.68 356.712463
16.69 363.675201
16.70 366.304077
16.71 360.677612
16.72 355.91568
16.73 356.886902
16.74 358.342346
16.75 348.379486
16.76 345.009521
16.77 349.332489
16.78 348.63205
16.79 357.490662
16.80 361.830444
16.81 358.924255
16.82 353.015045
16.83 346.417999
16.84 344.797211
16.85 360.670319
16.86 369.355103
16.87 356.608246
16.88 348.067657
16.89 351.042511
16.90 354.286682
16.91 351.887115
16.92 347.911194
16.93 347.031342
16.94 354.531647
16.95 363.633545
16.96 367.593842
16.97 367.232941
16.98 363.009827
16.99 367.191925
17.00 365.343262
17.01 358.409363
17.02 355.848999
17.03 358.097412
17.04 357.3573
17.05 359.074341
17.06 367.741058
17.07 372.187958
17.08 367.120605
17.09 365.033325
17.10 369.948975
17.11 370.231354
17.12 369.440338
17.13 366.189606
17.14 360.527039
17.15 353.416107
17.16 347.913177
17.17 350.120178
17.18 356.189087
17.19 364.065765
17.20 369.678436
17.21 367.147858
17.22 367.099304
17.23 369.345337
17.24 368.527069
17.25 361.417206
17.26 355.551819
17.27 358.130005
17.28 360.507904
17.29 362.924408
17.30 364.452148
17.31 362.843689
17.32 364.33374
17.33 365.233459
17.34 361.899933
17.35 360.746857
17.36 364.268677
17.37 366.287109
17.38 362.95993
17.39 366.182861
17.40 368.547058
17.41 365.876282
17.42 360.162781
17.43 362.731018
17.44 367.872498
17.45 368.122589
17.46 368.868866
17.47 369.465576
17.48 368.049316
17.49 363.957245
17.50 361.634766
17.51 367.989349
17.52 371.869598
17.53 368.359161
17.54 370.63916
17.55 372.444702
17.56 368.726105
17.57 367.732391
17.58 365.785278
17.59 362.387817
17.60 367.857422
17.61 368.339813
17.62 375.456604
17.63 381.59903
17.64 376.811707
17.65 373.786591
17.66 372.689911
17.67 374.768402
17.68 384.450684
17.69 378.358063
17.70 371.203583
17.71 370.988342
17.72 370.904083
17.73 375.834839
17.74 376.389252
17.75 377.885071
17.76 386.242249
17.77 385.590942
17.78 379.770233
17.79 381.247192
17.80 381.062256
17.81 377.957062
17.82 378.789032
17.83 377.953979
17.84 378.022003
17.85 379.087555
17.86 382.121704
17.87 385.365082
17.88 384.073975
17.89 382.314636
17.90 385.338043
17.91 392.1091
17.92 389.018433
17.93 395.085083
17.94 406.498077
17.95 399.448486
17.96 389.982452
17.97 387.968414
17.98 380.009857
17.99 376.075714
18.00 380.563934
18.01 389.107422
18.02 395.584259
18.03 395.535004
18.04 391.638458
18.05 392.134979
18.06 389.586456
18.07 384.836884
18.08 386.029938
18.09 387.925476
18.10 393.959351
18.11 397.147095
18.12 397.740173
18.13 397.242432
18.14 391.7854
18.15 390.621704
18.16 390.750732
18.17 393.863373
18.18 399.161835
18.19 402.310547
18.20 404.383331
18.21 403.749756
18.22 403.418823
18.23 405.305542
18.24 396.258331
18.25 399.535126
18.26 412.679657
18.27 416.311615
18.28 417.007385
18.29 410.713745
18.30 403.464905
18.31 408.174957
18.32 410.536224
18.33 408.317474
18.34 408.460693
18.35 410.589355
18.36 403.955872
18.37 399.296448
18.38 400.385437
18.39 404.750763
18.40 403.394897
18.41 407.445374
18.42 415.50473
18.43 418.605408
18.44 416.029419
18.45 415.368286
18.46 407.843872
18.47 406.336517
18.48 408.718384
18.49 413.734802
18.50 420.956543
18.51 426.47171
18.52 431.858093
18.53 424.059326
18.54 415.377777
18.55 420.296143
18.56 410.33847
18.57 411.228638
18.58 428.722412
18.59 431.110413
18.60 421.253906
18.61 415.981476
18.62 417.246277
18.63 417.297882
18.64 419.788147
18.65 425.933624
18.66 427.048553
18.67 421.854736
18.68 415.250092
18.69 416.947052
18.70 420.486328
18.71 420.529663
18.72 432.193451
18.73 435.587402
18.74 433.661133
18.75 438.535095
18.76 434.92453
18.77 414.228821
18.78 408.227997
18.79 414.132111
18.80 419.523376
18.81 421.334015
18.82 415.79422
18.83 415.183441
18.84 418.61911
18.85 427.427246
18.86 431.596802
18.87 434.038818
18.88 434.575806
18.89 432.993958
18.90 434.921173
18.91 436.36496
18.92 442.123383
18.93 443.828064
18.94 438.255676
18.95 434.801483
18.96 434.191132
18.97 430.385925
18.98 426.155731
18.99 426.395569
19.00 431.016144
19.01 437.813629
19.02 439.257599
19.03 436.060974
19.04 430.667084
19.05 429.071259
19.06 429.77359
19.07 428.558929
19.08 422.919067
19.09 422.963837
19.10 426.563934
19.11 428.97641
19.12 429.02066
19.13 429.160797
19.14 426.767487
19.15 426.107727
19.16 432.718903
19.17 435.856323
19.18 438.250793
19.19 441.323242
19.20 444.479828
19.21 444.198975
19.22 444.784119
19.23 438.057709
19.24 435.24176
19.25 439.957947
19.26 444.230072
19.27 455.010895
19.28 460.740723
19.29 446.348694
19.30 434.654053
19.31 436.317627
19.32 445.514893
19.33 451.795593
19.34 450.342285
19.35 446.670074
19.36 440.553558
19.37 439.50354
19.38 441.274475
19.39 442.851898
19.40 441.066681
19.41 439.530029
19.42 444.297729
19.43 454.096558
19.44 464.752502
19.45 464.169312
19.46 455.386871
19.47 449.4646
19.48 457.01181
19.49 467.679077
19.50 469.364136
19.51 466.996887
19.52 464.726807
19.53 457.391388
19.54 457.038879
19.55 455.887543
19.56 449.338318
19.57 444.745789
19.58 450.436371
19.59 455.005066
19.60 464.324524
19.61 473.518921
19.62 469.360291
19.63 467.04361
19.64 467.545532
19.65 459.253418
19.66 459.131866
19.67 460.630035
19.68 455.565826
19.69 457.55365
19.70 455.845215
19.71 451.821106
19.72 460.47226
19.73 468.850037
19.74 468.227722
19.75 468.953888
19.76 469.562622
19.77 472.093414
19.78 473.063873
19.79 474.663177
19.80 463.985291
19.81 460.283691
19.82 468.208313
19.83 472.259949
19.84 475.342041
19.85 474.575409
19.86 470.882904
19.87 470.489197
19.88 472.76825
19.89 476.656097
19.90 480.654755
19.91 470.019226
19.92 462.531891
19.93 463.924042
19.94 466.230316
19.95 466.963135
19.96 475.411285
19.97 476.244934
19.98 479.342651
19.99 489.410156
20.00 486.519287
20.01 488.490509
20.02 492.351379
20.03 492.53714
20.04 484.092041
20.05 480.052246
20.06 481.068085
20.07 484.053345
20.08 492.846436
20.09 491.602112
20.10 485.27951
20.11 485.078217
20.12 494.746674
20.13 503.963165
20.14 507.703247
20.15 507.323181
20.16 499.102509
20.17 492.477692
20.18 494.073853
20.19 502.085938
20.20 504.378235
20.21 500.003723
20.22 501.702606
20.23 500.826141
20.24 501.359619
20.25 512.333313
20.26 514.70282
20.27 511.641266
20.28 512.695618
20.29 512.953796
20.30 513.600037
20.31 517.446594
20.32 514.417542
20.33 505.728973
20.34 500.088989
20.35 503.886566
20.36 512.089111
20.37 515.182983
20.38 515.373657
20.39 509.68924
20.40 511.014343
20.41 520.240051
20.42 528.55957
20.43 526.79303
20.44 518.619202
20.45 514.50592
20.46 515.03833
20.47 511.769348
20.48 514.125305
20.49 519.230591
20.50 522.272949
20.51 526.810974
20.52 520.529541
20.53 507.588287
20.54 513.40979
20.55 528.767944
20.56 527.38501
20.57 528.166443
20.58 514.553528
20.59 509.387665
20.60 520.625122
20.61 519.953735
20.62 519.003357
20.63 516.42157
20.64 514.453186
20.65 518.456299
20.66 517.629639
20.67 520.820984
20.68 532.25647
20.69 535.989258
20.70 530.703674
20.71 530.90686
20.72 529.435364
20.73 535.832275
20.74 540.476074
20.75 533.021545
20.76 524.350464
20.77 524.443665
20.78 526.91803
20.79 527.536621
20.80 519.273987
20.81 512.436279
20.82 509.145874
20.83 516.692871
20.84 527.216553
20.85 530.553772
20.86 533.06134
20.87 539.894653
20.88 543.455566
