!@!!GADDS PLOTSO FILE: Chi integration type
!@!!Title/SampleName: ML_MAPbX3
!@!!User: NREL
!@!!Site: NREL SERF C211; SN 2510
!@!!Frame: 081022_MLProject_000_007.gfrm
!@!!Wavelengths    1.54184   1.54056   1.54439
!@!!Frame angles: 2Theta: 28.000 Omega: 5.000 Phi: 0.000 Chi: 90.000
!@!!Integration range: 2Theta: 10.000 to 41.100  Gamma: -120.400 to -60.400
!@!!Integration method: bin normalized
!@!N
!@!SS
!@!M
!@!L 0.0 0.0 0.0 0.0
!@!XDegrees
!@!YCounts
10.00 201.100159
10.01 200.468063
10.02 198.683151
10.03 197.113144
10.04 199.187485
10.05 198.723145
10.06 199.885818
10.07 208.047287
10.08 203.576721
10.09 196.875366
10.10 205.61554
10.11 212.582367
10.12 212.508347
10.13 211.270538
10.14 207.162109
10.15 209.096695
10.16 214.626663
10.17 217.961105
10.18 223.175903
10.19 217.934372
10.20 211.748993
10.21 211.230194
10.22 212.271072
10.23 203.798798
10.24 203.961319
10.25 208.249512
10.26 203.382431
10.27 209.313553
10.28 217.808334
10.29 218.589554
10.30 217.998566
10.31 214.951447
10.32 213.79921
10.33 215.065659
10.34 212.700027
10.35 213.862793
10.36 209.321869
10.37 201.488617
10.38 202.9823
10.39 203.044174
10.40 206.756348
10.41 211.81044
10.42 211.590958
10.43 210.975327
10.44 213.3629
10.45 215.077774
10.46 215.09494
10.47 216.01915
10.48 211.134644
10.49 210.066803
10.50 216.975723
10.51 215.918945
10.52 211.318649
10.53 218.560913
10.54 220.33786
10.55 218.010254
10.56 211.564423
10.57 202.017181
10.58 203.959549
10.59 213.403534
10.60 223.746445
10.61 225.39389
10.62 226.973679
10.63 228.34906
10.64 226.689499
10.65 224.028839
10.66 220.722504
10.67 220.637421
10.68 221.582733
10.69 227.862518
10.70 224.898361
10.71 220.102005
10.72 215.771027
10.73 213.423035
10.74 216.304565
10.75 217.259552
10.76 216.138458
10.77 222.082809
10.78 219.640091
10.79 220.513138
10.80 220.507813
10.81 214.689178
10.82 212.0009
10.83 208.755386
10.84 209.039368
10.85 219.5784
10.86 228.419083
10.87 230.418045
10.88 227.164825
10.89 217.177719
10.90 221.80246
10.91 228.281235
10.92 229.739883
10.93 232.864288
10.94 237.925659
10.95 234.573135
10.96 227.855698
10.97 234.256073
10.98 236.587067
10.99 226.229691
11.00 226.511047
11.01 234.549942
11.02 232.270264
11.03 233.57811
11.04 230.354645
11.05 223.334183
11.06 219.428558
11.07 214.488846
11.08 223.496414
11.09 231.885605
11.10 234.090622
11.11 240.582397
11.12 240.688446
11.13 234.274124
11.14 237.773422
11.15 238.561356
11.16 234.42746
11.17 228.386917
11.18 225.55484
11.19 229.802261
11.20 228.992203
11.21 233.096695
11.22 236.139542
11.23 229.974075
11.24 228.748337
11.25 228.596573
11.26 232.02002
11.27 232.954254
11.28 234.779861
11.29 240.866486
11.30 244.012619
11.31 242.970566
11.32 231.231903
11.33 229.991531
11.34 234.086792
11.35 238.409546
11.36 242.502426
11.37 240.397034
11.38 240.505905
11.39 241.119049
11.40 242.079422
11.41 244.078888
11.42 249.183426
11.43 249.494308
11.44 248.590439
11.45 246.837418
11.46 244.498871
11.47 246.428726
11.48 250.218933
11.49 250.378326
11.50 249.410156
11.51 247.989456
11.52 248.524384
11.53 245.636414
11.54 240.16716
11.55 246.816101
11.56 249.442734
11.57 242.174149
11.58 241.846085
11.59 233.473709
11.60 226.833374
11.61 228.94455
11.62 232.692429
11.63 238.769791
11.64 236.593521
11.65 239.796951
11.66 249.739609
11.67 256.179718
11.68 253.40686
11.69 251.756287
11.70 252.158005
11.71 253.107132
11.72 254.237396
11.73 252.355728
11.74 254.307816
11.75 259.955261
11.76 255.032394
11.77 243.696411
11.78 243.762344
11.79 243.149536
11.80 249.32251
11.81 267.007141
11.82 269.580292
11.83 258.185516
11.84 255.345276
11.85 262.043488
11.86 267.449097
11.87 267.498657
11.88 267.529175
11.89 263.38382
11.90 249.183945
11.91 254.932983
11.92 267.973083
11.93 267.672333
11.94 262.328369
11.95 254.890976
11.96 255.020126
11.97 263.889465
11.98 270.932526
11.99 272.134247
12.00 272.673462
12.01 275.491943
12.02 277.217072
12.03 275.0271
12.04 276.507935
12.05 275.473236
12.06 278.299866
12.07 287.167725
12.08 290.87796
12.09 291.808441
12.10 291.871918
12.11 282.441772
12.12 274.314392
12.13 276.31723
12.14 288.579681
12.15 298.55542
12.16 305.716797
12.17 307.339478
12.18 303.043945
12.19 298.902649
12.20 301.213776
12.21 304.641022
12.22 308.322418
12.23 301.949799
12.24 294.639893
12.25 309.90033
12.26 318.179871
12.27 322.924316
12.28 328.156555
12.29 328.512909
12.30 344.920502
12.31 360.009521
12.32 364.26123
12.33 379.361786
12.34 374.375397
12.35 363.387329
12.36 363.945831
12.37 364.269775
12.38 367.320496
12.39 365.388367
12.40 360.181824
12.41 370.307617
12.42 381.539276
12.43 383.754944
12.44 391.968475
12.45 399.379639
12.46 401.294769
12.47 403.547852
12.48 410.624115
12.49 417.953613
12.50 424.203033
12.51 417.858124
12.52 407.153381
12.53 406.062531
12.54 416.052368
12.55 423.239136
12.56 432.157166
12.57 439.950409
12.58 444.580505
12.59 445.681061
12.60 444.950317
12.61 440.208496
12.62 433.343781
12.63 437.541199
12.64 439.702423
12.65 426.613342
12.66 416.906067
12.67 416.19339
12.68 408.981842
12.69 406.23468
12.70 404.155029
12.71 404.263184
12.72 402.725677
12.73 394.253204
12.74 391.558441
12.75 385.492798
12.76 379.308807
12.77 367.529785
12.78 354.003357
12.79 350.299255
12.80 351.045441
12.81 339.462799
12.82 332.545258
12.83 332.018768
12.84 342.740875
12.85 346.011108
12.86 337.652954
12.87 328.511597
12.88 325.02121
12.89 324.54071
12.90 324.878906
12.91 327.793335
12.92 328.855896
12.93 321.410461
12.94 307.416565
12.95 305.49527
12.96 302.883026
12.97 294.176544
12.98 294.914001
12.99 296.34259
13.00 293.68335
13.01 293.896698
13.02 297.115845
13.03 296.339447
13.04 299.577362
13.05 302.879974
13.06 302.25589
13.07 303.648163
13.08 306.354767
13.09 309.986816
13.10 303.880005
13.11 294.759033
13.12 294.257233
13.13 290.476746
13.14 283.0914
13.15 282.633423
13.16 278.878387
13.17 285.009918
13.18 295.401276
13.19 297.314728
13.20 290.449249
13.21 286.882263
13.22 290.002716
13.23 295.140289
13.24 292.793304
13.25 287.167908
13.26 290.655212
13.27 288.969421
13.28 287.731842
13.29 287.644989
13.30 287.345825
13.31 293.792175
13.32 290.560852
13.33 287.27597
13.34 287.465393
13.35 287.534119
13.36 293.92038
13.37 290.17691
13.38 286.595856
13.39 292.085052
13.40 290.320313
13.41 288.843109
13.42 287.423828
13.43 287.191498
13.44 292.408813
13.45 290.954102
13.46 297.253082
13.47 297.440552
13.48 293.688324
13.49 291.272552
13.50 290.450562
13.51 290.756256
13.52 284.427429
13.53 285.671448
13.54 296.201233
13.55 299.801453
13.56 296.201508
13.57 288.905762
13.58 286.698212
13.59 298.421173
13.60 307.578766
13.61 310.520142
13.62 308.504791
13.63 307.196655
13.64 309.892487
13.65 311.101654
13.66 316.163757
13.67 321.66272
13.68 321.199432
13.69 326.845154
13.70 329.442688
13.71 334.204285
13.72 332.985138
13.73 324.67569
13.74 328.950592
13.75 342.298615
13.76 347.481689
13.77 339.949738
13.78 334.395508
13.79 332.015961
13.80 341.037842
13.81 350.850708
13.82 351.891388
13.83 353.533813
13.84 356.820496
13.85 360.176178
13.86 367.105621
13.87 367.546112
13.88 358.793396
13.89 358.249725
13.90 371.796112
13.91 380.882782
13.92 392.497559
13.93 407.587708
13.94 413.449524
13.95 407.750946
13.96 406.125488
13.97 407.663025
13.98 419.859863
13.99 443.694946
14.00 444.685791
14.01 442.537781
14.02 450.16394
14.03 459.382843
14.04 471.160034
14.05 471.527802
14.06 475.524353
14.07 498.95639
14.08 506.071106
14.09 505.381348
14.10 526.470215
14.11 552.206543
14.12 560.524902
14.13 594.492432
14.14 613.939026
14.15 616.065247
14.16 624.143433
14.17 642.772766
14.18 651.874634
14.19 664.540527
14.20 688.28479
14.21 704.695557
14.22 730.585388
14.23 759.461914
14.24 796.43512
14.25 823.1474
14.26 843.244019
14.27 857.659241
14.28 877.407288
14.29 899.529297
14.30 927.194885
14.31 944.306641
14.32 975.351318
14.33 1002.465942
14.34 1037.983765
14.35 1064.02124
14.36 1091.878418
14.37 1121.234253
14.38 1138.597778
14.39 1145.421997
14.40 1168.377686
14.41 1184.068848
14.42 1195.798706
14.43 1211.0979
14.44 1213.135132
14.45 1211.174072
14.46 1218.413208
14.47 1221.013794
14.48 1208.9104
14.49 1195.831543
14.50 1173.448242
14.51 1138.490479
14.52 1122.046753
14.53 1108.983276
14.54 1095.072266
14.55 1067.727539
14.56 1045.562744
14.57 1001.813293
14.58 940.670593
14.59 911.257385
14.60 880.692871
14.61 849.625854
14.62 821.338928
14.63 808.479309
14.64 779.343323
14.65 741.193176
14.66 694.923157
14.67 670.32428
14.68 636.449158
14.69 619.145081
14.70 596.640625
14.71 576.619202
14.72 562.038879
14.73 551.9198
14.74 538.195068
14.75 527.659546
14.76 518.272217
14.77 493.602448
14.78 469.871582
14.79 460.941742
14.80 464.018402
14.81 455.560425
14.82 444.167694
14.83 433.223877
14.84 430.595795
14.85 425.24762
14.86 423.595978
14.87 412.242218
14.88 397.719025
14.89 388.160126
14.90 382.605255
14.91 370.587952
14.92 364.142883
14.93 373.732635
14.94 382.433838
14.95 384.828796
14.96 377.124603
14.97 371.223389
14.98 365.019409
14.99 356.005798
15.00 355.816803
15.01 364.641571
15.02 365.832275
15.03 363.537628
15.04 364.332123
15.05 357.341614
15.06 351.229248
15.07 355.360352
15.08 358.159088
15.09 358.771545
15.10 349.304901
15.11 338.71759
15.12 339.786285
15.13 349.507172
15.14 344.322632
15.15 336.008453
15.16 337.607819
15.17 334.451691
15.18 327.984406
15.19 326.604736
15.20 328.998779
15.21 330.232208
15.22 331.193512
15.23 336.902374
15.24 334.5578
15.25 324.340393
15.26 326.677185
15.27 329.948029
15.28 327.742798
15.29 324.880066
15.30 321.020355
15.31 325.774414
15.32 327.794891
15.33 318.403748
15.34 313.253418
15.35 315.828217
15.36 313.112274
15.37 310.433807
15.38 314.631866
15.39 324.13678
15.40 326.287048
15.41 323.287445
15.42 332.981323
15.43 336.218903
15.44 334.025665
15.45 331.190002
15.46 326.087708
15.47 325.947876
15.48 330.002319
15.49 335.12265
15.50 333.14328
15.51 326.425018
15.52 323.909302
15.53 329.89505
15.54 330.730469
15.55 330.153259
15.56 329.970673
15.57 325.899658
15.58 320.492371
15.59 318.18277
15.60 317.649109
15.61 313.303375
15.62 308.77121
15.63 316.019318
15.64 326.723816
15.65 328.415863
15.66 331.544037
15.67 330.599304
15.68 325.864471
15.69 322.349792
15.70 318.814331
15.71 324.224335
15.72 336.04129
15.73 336.589813
15.74 324.114716
15.75 321.442505
15.76 325.627045
15.77 328.286499
15.78 332.20816
15.79 335.525482
15.80 330.465851
15.81 328.794342
15.82 325.583527
15.83 329.561737
15.84 329.407532
15.85 325.432373
15.86 329.37146
15.87 328.994476
15.88 323.85614
15.89 320.826202
15.90 327.698395
15.91 332.498566
15.92 324.003082
15.93 319.293793
15.94 327.884735
15.95 338.61142
15.96 338.441284
15.97 340.27475
15.98 337.704437
15.99 321.640045
16.00 318.148682
16.01 321.051453
16.02 319.877991
16.03 320.94577
16.04 321.533936
16.05 328.239929
16.06 332.576965
16.07 334.384918
16.08 339.462006
16.09 340.829803
16.10 343.01532
16.11 340.940063
16.12 337.371582
16.13 335.623444
16.14 334.899628
16.15 340.190094
16.16 337.348724
16.17 334.751282
16.18 341.310547
16.19 337.04837
16.20 331.223053
16.21 331.658844
16.22 332.762543
16.23 330.984589
16.24 334.290283
16.25 337.627289
16.26 340.876648
16.27 342.026337
16.28 338.733734
16.29 332.476563
16.30 336.741577
16.31 342.66153
16.32 347.21991
16.33 350.611755
16.34 347.663971
16.35 344.806641
16.36 340.658173
16.37 333.665375
16.38 335.788788
16.39 343.144501
16.40 337.730316
16.41 327.973145
16.42 326.652252
16.43 329.71283
16.44 339.658661
16.45 340.488708
16.46 339.665924
16.47 337.940277
16.48 328.468567
16.49 331.838562
16.50 337.875
16.51 334.171234
16.52 334.32431
16.53 340.09552
16.54 347.449707
16.55 349.628448
16.56 344.468994
16.57 342.872681
16.58 342.950226
16.59 341.550659
16.60 343.557343
16.61 336.698944
16.62 329.893646
16.63 334.190765
16.64 333.999084
16.65 330.82782
16.66 337.379791
16.67 342.707428
16.68 342.383911
16.69 342.909363
16.70 346.39386
16.71 349.18042
16.72 346.171326
16.73 340.132416
16.74 342.928162
16.75 342.555756
16.76 348.091339
16.77 354.125488
16.78 355.178406
16.79 360.007904
16.80 365.152985
16.81 358.7341
16.82 345.135773
16.83 337.92865
16.84 334.259247
16.85 334.214722
16.86 344.510742
16.87 354.184143
16.88 349.280273
16.89 353.844482
16.90 364.016022
16.91 366.988434
16.92 366.128326
16.93 360.677338
16.94 354.783752
16.95 351.757751
16.96 348.295868
16.97 352.271637
16.98 361.703583
16.99 359.644073
17.00 354.358276
17.01 353.5755
17.02 354.983154
17.03 358.466614
17.04 360.370575
17.05 360.012665
17.06 364.907288
17.07 362.829712
17.08 357.118134
17.09 354.009949
17.10 351.589233
17.11 349.817657
17.12 347.556183
17.13 345.380493
17.14 348.185242
17.15 356.715668
17.16 359.147766
17.17 359.889771
17.18 364.918488
17.19 369.6409
17.20 376.926117
17.21 377.998413
17.22 366.457764
17.23 355.82663
17.24 356.705353
17.25 364.040466
17.26 367.005432
17.27 369.390442
17.28 366.193909
17.29 362.67804
17.30 365.731232
17.31 375.790802
17.32 374.03476
17.33 365.83902
17.34 365.39447
17.35 365.914124
17.36 362.219452
17.37 356.660919
17.38 355.598511
17.39 368.984192
17.40 378.762634
17.41 374.74292
17.42 369.417358
17.43 360.511566
17.44 360.794128
17.45 365.718842
17.46 363.426025
17.47 365.960602
17.48 371.826263
17.49 370.638062
17.50 371.02298
17.51 371.253448
17.52 366.110199
17.53 361.479828
17.54 365.109833
17.55 371.517303
17.56 369.731659
17.57 372.106689
17.58 375.790924
17.59 376.733215
17.60 375.129669
17.61 374.821442
17.62 378.794617
17.63 372.455475
17.64 362.070038
17.65 365.179596
17.66 376.87616
17.67 378.825409
17.68 375.858582
17.69 374.260864
17.70 373.31366
17.71 374.627716
17.72 374.449066
17.73 368.013275
17.74 371.987579
17.75 381.920074
17.76 381.855774
17.77 375.42746
17.78 367.484039
17.79 368.011108
17.80 374.971619
17.81 385.302673
17.82 391.701172
17.83 391.020447
17.84 392.50415
17.85 383.938446
17.86 375.893005
17.87 379.929199
17.88 385.860352
17.89 385.657928
17.90 380.594757
17.91 379.755341
17.92 388.075775
17.93 391.040558
17.94 390.177216
17.95 390.330688
17.96 389.956451
17.97 383.154541
17.98 375.929504
17.99 385.665161
18.00 396.24295
18.01 394.442139
18.02 396.108185
18.03 401.759613
18.04 395.744324
18.05 395.384491
18.06 391.011597
18.07 390.843567
18.08 393.696381
18.09 389.835449
18.10 385.783722
18.11 385.03894
18.12 390.273285
18.13 393.089478
18.14 392.651428
18.15 392.093842
18.16 397.827942
18.17 403.74765
18.18 400.371887
18.19 395.572784
18.20 397.468872
18.21 395.889038
18.22 391.995636
18.23 401.757965
18.24 408.440674
18.25 410.292694
18.26 414.6297
18.27 409.594086
18.28 411.470703
18.29 415.79184
18.30 412.472809
18.31 400.45108
18.32 394.44754
18.33 394.812927
18.34 398.353333
18.35 405.382629
18.36 408.334137
18.37 407.922699
18.38 409.636292
18.39 412.63562
18.40 413.325226
18.41 409.361023
18.42 401.816589
18.43 400.5802
18.44 403.992004
18.45 408.525482
18.46 408.051422
18.47 401.553558
18.48 405.009308
18.49 407.682251
18.50 406.177094
18.51 408.018921
18.52 408.216553
18.53 396.194427
18.54 393.209412
18.55 398.016022
18.56 406.326996
18.57 410.631348
18.58 403.74411
18.59 398.188263
18.60 403.99231
18.61 403.960815
18.62 404.290405
18.63 410.96225
18.64 416.693726
18.65 422.483612
18.66 422.550201
18.67 418.35144
18.68 417.138458
18.69 409.849426
18.70 408.297974
18.71 415.316101
18.72 423.174683
18.73 424.070862
18.74 416.576324
18.75 409.652039
18.76 408.007843
18.77 411.530304
18.78 405.29715
18.79 405.083771
18.80 417.691711
18.81 415.037781
18.82 409.904877
18.83 407.313904
18.84 411.752655
18.85 418.512939
18.86 417.200897
18.87 422.812134
18.88 427.565002
18.89 430.460785
18.90 437.943695
18.91 441.209869
18.92 433.033386
18.93 422.432159
18.94 426.291351
18.95 434.722443
18.96 434.934998
18.97 434.419067
18.98 433.521332
18.99 428.841217
19.00 425.173645
19.01 429.662292
19.02 429.610107
19.03 434.445862
19.04 442.362701
19.05 446.465027
19.06 450.920959
19.07 453.683533
19.08 449.487274
19.09 441.663818
19.10 439.662598
19.11 441.363861
19.12 443.804169
19.13 443.577271
19.14 436.224426
19.15 428.282379
19.16 432.255188
19.17 439.25174
19.18 434.388489
19.19 431.163086
19.20 433.416046
19.21 430.717987
19.22 427.875916
19.23 433.015961
19.24 436.524933
19.25 442.423798
19.26 450.187988
19.27 453.967285
19.28 454.785461
19.29 447.446167
19.30 437.992798
19.31 433.917664
19.32 439.933929
19.33 443.225586
19.34 440.931458
19.35 440.416473
19.36 441.511688
19.37 441.374268
19.38 448.265991
19.39 460.704468
19.40 462.874878
19.41 460.655457
19.42 461.428558
19.43 457.138062
19.44 451.004089
19.45 449.404236
19.46 445.1297
19.47 446.000671
19.48 451.738861
19.49 452.525482
19.50 450.486938
19.51 451.258392
19.52 460.84375
19.53 463.039612
19.54 459.373199
19.55 453.439819
19.56 447.839294
19.57 450.667633
19.58 461.797852
19.59 460.403778
19.60 452.68927
19.61 456.470581
19.62 455.344299
19.63 454.938263
19.64 462.25412
19.65 464.806091
19.66 460.981415
19.67 457.349365
19.68 453.367523
19.69 458.407715
19.70 462.847687
19.71 464.470856
19.72 467.884064
19.73 468.45993
19.74 466.195251
19.75 466.466064
19.76 470.311829
19.77 468.917389
19.78 468.367737
19.79 467.402344
19.80 465.449463
19.81 464.068787
19.82 470.327545
19.83 479.664429
19.84 477.976593
19.85 478.651611
19.86 481.105347
19.87 482.696991
19.88 483.031433
19.89 477.088623
19.90 470.986481
19.91 464.848785
19.92 472.290039
19.93 485.417419
19.94 489.697632
19.95 485.955566
19.96 482.85675
19.97 478.912415
19.98 473.517975
19.99 468.2034
20.00 470.778259
20.01 472.135437
20.02 470.343719
20.03 469.03421
20.04 466.834381
20.05 469.189423
20.06 474.304932
20.07 474.163055
20.08 471.010437
20.09 472.272888
20.10 474.22226
20.11 479.379272
20.12 482.941559
20.13 487.236816
20.14 493.436768
20.15 492.86087
20.16 491.520386
20.17 494.025391
20.18 497.7323
20.19 497.123505
20.20 491.656281
20.21 486.908997
20.22 486.155853
20.23 489.78186
20.24 491.723022
20.25 495.85376
20.26 495.254211
20.27 494.317627
20.28 496.978485
20.29 498.183624
20.30 496.644562
20.31 489.419342
20.32 489.928955
20.33 491.148682
20.34 492.86087
20.35 496.342102
20.36 496.774567
20.37 491.677917
20.38 492.58255
20.39 497.974884
20.40 494.922821
20.41 500.586395
20.42 504.421387
20.43 503.148376
20.44 504.63446
20.45 504.825012
20.46 502.403168
20.47 499.563019
20.48 503.101746
20.49 511.220184
20.50 508.931824
20.51 500.067261
20.52 501.745209
20.53 510.268463
20.54 510.322083
20.55 507.775177
20.56 508.949219
20.57 507.147552
20.58 507.263672
20.59 510.322113
20.60 515.877869
20.61 519.745361
20.62 514.840149
20.63 513.809814
20.64 510.849884
20.65 509.020081
20.66 506.302551
20.67 504.144592
20.68 511.342316
20.69 514.40448
20.70 516.086487
20.71 517.055786
20.72 518.507324
20.73 519.9328
20.74 519.067383
20.75 520.017822
20.76 523.994751
20.77 519.173035
20.78 515.95166
20.79 514.879211
20.80 516.408875
20.81 514.73584
20.82 512.817627
20.83 518.543091
20.84 523.17688
20.85 517.782593
20.86 519.934082
20.87 528.772278
20.88 533.029541
20.89 537.582397
20.90 537.059998
