!@!!GADDS PLOTSO FILE: Chi integration type
!@!!Title/SampleName: ML_MAPbX3_chem3
!@!!User: NREL
!@!!Site: NREL SERF C211; SN 2510
!@!!Frame: ML_MAPbX3_chem3_000_002.gfrm
!@!!Wavelengths    1.54184   1.54056   1.54439
!@!!Frame angles: 2Theta: 28.000 Omega: 5.000 Phi: 0.000 Chi: 90.000
!@!!Integration range: 2Theta: 9.700 to 40.700  Gamma: -125.100 to -56.400
!@!!Integration method: bin normalized
!@!N
!@!SS
!@!M
!@!L 0.0 0.0 0.0 0.0
!@!XDegrees
!@!YCounts
9.70 181.329056
9.71 183.469116
9.72 175.383072
9.73 169.971146
9.74 175.071335
9.75 179.179092
9.76 177.724655
9.77 178.67511
9.78 180.12355
9.79 178.93985
9.80 174.196381
9.81 175.313385
9.82 176.746078
9.83 180.768845
9.84 183.605728
9.85 181.428665
9.86 176.322739
9.87 175.531845
9.88 182.718735
9.89 176.638336
9.90 167.606445
9.91 171.103241
9.92 176.910141
9.93 182.210373
9.94 180.514008
9.95 182.480789
9.96 186.490463
9.97 184.336517
9.98 185.038788
9.99 184.615677
10.00 187.108627
10.01 188.642532
10.02 188.122955
10.03 187.529968
10.04 185.340958
10.05 182.456543
10.06 182.819122
10.07 180.890686
10.08 176.702728
10.09 176.954254
10.10 178.066467
10.11 185.600555
10.12 189.953094
10.13 183.691406
10.14 185.331345
10.15 199.253128
10.16 198.807083
10.17 185.75473
10.18 183.738632
10.19 185.15004
10.20 177.192627
10.21 181.62944
10.22 188.691116
10.23 182.358643
10.24 187.322723
10.25 194.92041
10.26 192.292938
10.27 192.403442
10.28 193.908646
10.29 188.295563
10.30 184.69519
10.31 191.981827
10.32 186.21315
10.33 171.543671
10.34 177.261093
10.35 185.731125
10.36 185.635361
10.37 183.443878
10.38 183.860947
10.39 183.645706
10.40 184.355164
10.41 185.599823
10.42 183.96019
10.43 178.193893
10.44 175.310287
10.45 186.406967
10.46 188.4496
10.47 185.569946
10.48 192.29837
10.49 196.712158
10.50 200.958038
10.51 200.601624
10.52 202.204239
10.53 204.015747
10.54 199.285553
10.55 199.161423
10.56 197.96199
10.57 190.858627
10.58 186.634369
10.59 193.379074
10.60 198.533646
10.61 199.156555
10.62 197.104645
10.63 202.165192
10.64 207.873917
10.65 199.960953
10.66 194.785522
10.67 195.151138
10.68 194.785904
10.69 200.167282
10.70 202.058701
10.71 201.216141
10.72 203.278671
10.73 194.228317
10.74 199.266754
10.75 206.709854
10.76 204.91832
10.77 203.561798
10.78 202.360245
10.79 198.400604
10.80 193.682388
10.81 199.701324
10.82 202.935532
10.83 203.664551
10.84 202.884811
10.85 201.595413
10.86 205.858597
10.87 207.795853
10.88 205.629349
10.89 207.176926
10.90 203.047546
10.91 198.122269
10.92 199.108444
10.93 209.756668
10.94 212.81636
10.95 208.46814
10.96 204.95462
10.97 201.103195
10.98 199.852631
10.99 197.246399
11.00 192.225754
11.01 192.392136
11.02 197.101578
11.03 202.473083
11.04 205.653076
11.05 205.936508
11.06 199.349823
11.07 198.950867
11.08 203.883301
11.09 205.169846
11.10 213.633728
11.11 214.807434
11.12 211.948715
11.13 212.045212
11.14 210.238525
11.15 207.339676
11.16 206.526749
11.17 208.793091
11.18 206.596237
11.19 204.598145
11.20 206.600464
11.21 202.96077
11.22 202.166321
11.23 206.515259
11.24 199.741821
11.25 196.780594
11.26 207.663376
11.27 210.564606
11.28 207.63063
11.29 202.544388
11.30 202.228485
11.31 206.120407
11.32 210.28186
11.33 212.377243
11.34 210.848572
11.35 209.195496
11.36 206.724716
11.37 209.510391
11.38 218.168793
11.39 221.086914
11.40 214.214859
11.41 211.05452
11.42 209.804886
11.43 208.612442
11.44 213.512772
11.45 218.152878
11.46 222.653824
11.47 223.563599
11.48 218.378876
11.49 214.800797
11.50 216.00885
11.51 220.332825
11.52 217.596832
11.53 210.949707
11.54 210.148743
11.55 209.341965
11.56 212.017609
11.57 213.513412
11.58 216.332504
11.59 212.284729
11.60 213.431198
11.61 222.50473
11.62 226.757248
11.63 229.633377
11.64 231.5065
11.65 227.034698
11.66 222.564438
11.67 225.70314
11.68 223.566437
11.69 218.211273
11.70 218.790604
11.71 219.658371
11.72 219.497391
11.73 214.729813
11.74 210.359161
11.75 218.536102
11.76 225.029099
11.77 223.52507
11.78 226.226791
11.79 231.393814
11.80 233.156158
11.81 230.913818
11.82 227.952988
11.83 225.054672
11.84 218.12059
11.85 217.116272
11.86 219.075974
11.87 218.304977
11.88 221.411285
11.89 223.083298
11.90 224.621216
11.91 225.723083
11.92 233.138885
11.93 236.509384
11.94 234.179398
11.95 235.437881
11.96 231.03923
11.97 230.110687
11.98 239.064743
11.99 238.547195
12.00 230.881805
12.01 228.615814
12.02 224.860443
12.03 224.951981
12.04 226.906006
12.05 226.810135
12.06 234.940979
12.07 228.693085
12.08 223.361298
12.09 220.675323
12.10 216.808411
12.11 224.57959
12.12 227.875381
12.13 229.119125
12.14 231.634247
12.15 230.034485
12.16 233.502731
12.17 238.45047
12.18 231.054489
12.19 224.326263
12.20 222.355011
12.21 223.53566
12.22 229.450531
12.23 233.996964
12.24 235.492889
12.25 240.520477
12.26 234.603928
12.27 227.112808
12.28 228.918427
12.29 237.795837
12.30 245.728348
12.31 249.470322
12.32 247.950272
12.33 241.162628
12.34 241.628876
12.35 237.687744
12.36 232.3423
12.37 235.643829
12.38 236.624786
12.39 236.64595
12.40 241.688568
12.41 247.167587
12.42 246.391296
12.43 244.902466
12.44 252.515274
12.45 251.51799
12.46 245.737274
12.47 238.10936
12.48 238.854004
12.49 245.097183
12.50 240.583542
12.51 240.967758
12.52 242.741486
12.53 241.166168
12.54 240.226486
12.55 240.577072
12.56 246.180283
12.57 251.29921
12.58 254.862778
12.59 247.3311
12.60 245.075653
12.61 246.119339
12.62 256.664825
12.63 263.28125
12.64 250.829483
12.65 238.687729
12.66 233.547195
12.67 243.995331
12.68 248.460052
12.69 252.191086
12.70 255.420029
12.71 249.03743
12.72 251.70192
12.73 259.259674
12.74 261.545288
12.75 263.214813
12.76 259.31778
12.77 251.358002
12.78 249.464325
12.79 251.131042
12.80 256.497803
12.81 264.030182
12.82 266.637817
12.83 265.309204
12.84 259.088409
12.85 257.106995
12.86 259.298981
12.87 257.931854
12.88 257.028687
12.89 252.315262
12.90 253.001526
12.91 259.674164
12.92 258.973297
12.93 258.451324
12.94 260.697083
12.95 260.167908
12.96 262.716156
12.97 263.439911
12.98 258.945953
12.99 259.411072
13.00 264.312042
13.01 261.71579
13.02 255.196106
13.03 259.77005
13.04 266.547241
13.05 266.33783
13.06 268.364594
13.07 269.482483
13.08 262.717438
13.09 260.484406
13.10 259.078735
13.11 258.614685
13.12 266.258789
13.13 270.35022
13.14 274.846375
13.15 274.115417
13.16 268.766754
13.17 262.730286
13.18 263.758575
13.19 269.006592
13.20 271.065277
13.21 270.972412
13.22 276.043854
13.23 278.909546
13.24 274.241974
13.25 271.996124
13.26 272.659241
13.27 271.198944
13.28 269.592712
13.29 262.787689
13.30 256.964722
13.31 256.498627
13.32 259.076752
13.33 263.737915
13.34 264.285278
13.35 265.912598
13.36 267.989441
13.37 264.739777
13.38 262.474213
13.39 267.236938
13.40 273.026306
13.41 275.01181
13.42 274.419128
13.43 270.196075
13.44 265.882538
13.45 267.084717
13.46 276.651886
13.47 282.473389
13.48 280.785248
13.49 282.99884
13.50 282.609039
13.51 274.353455
13.52 272.381714
13.53 275.249298
13.54 275.677368
13.55 268.399933
13.56 271.798523
13.57 281.440521
13.58 286.331665
13.59 288.16864
13.60 287.930115
13.61 283.179504
13.62 276.914093
13.63 276.232391
13.64 274.932465
13.65 276.819916
13.66 280.107086
13.67 282.149506
13.68 282.06604
13.69 275.670135
13.70 274.841095
13.71 280.768097
13.72 279.545441
13.73 277.03714
13.74 278.155273
13.75 281.506195
13.76 283.793488
13.77 282.975708
13.78 286.786102
13.79 293.638641
13.80 295.08786
13.81 288.684784
13.82 283.26828
13.83 289.155945
13.84 292.88678
13.85 290.500763
13.86 290.114563
13.87 285.844635
13.88 285.672241
13.89 291.53714
13.90 290.293335
13.91 284.004517
13.92 281.441528
13.93 286.440552
13.94 293.843048
13.95 299.275909
13.96 298.238037
13.97 301.06427
13.98 297.833466
13.99 287.30249
14.00 292.068695
14.01 301.671631
14.02 295.774872
14.03 288.428925
14.04 287.997986
14.05 286.833832
14.06 283.95282
14.07 290.943878
14.08 294.408722
14.09 289.709869
14.10 291.245178
14.11 291.76413
14.12 293.748047
14.13 295.039429
14.14 295.6828
14.15 294.784973
14.16 296.940704
14.17 297.560669
14.18 289.026245
14.19 290.627625
14.20 291.245087
14.21 289.114594
14.22 291.5242
14.23 290.69809
14.24 288.674683
14.25 286.045959
14.26 293.514282
14.27 298.02124
14.28 296.979736
14.29 299.228394
14.30 301.594666
14.31 300.304596
14.32 298.192474
14.33 301.148438
14.34 306.354614
14.35 312.039917
14.36 317.459351
14.37 315.548218
14.38 312.049194
14.39 313.582275
14.40 311.499298
14.41 305.173767
14.42 305.125458
14.43 314.606445
14.44 321.264954
14.45 319.32193
14.46 322.223267
14.47 325.903259
14.48 322.710236
14.49 319.007385
14.50 324.220551
14.51 331.986481
14.52 326.953613
14.53 311.577423
14.54 309.946777
14.55 319.801788
14.56 323.841583
14.57 324.689575
14.58 328.86087
14.59 330.527161
14.60 332.230011
14.61 331.315399
14.62 328.056274
14.63 328.365448
14.64 326.17746
14.65 321.260254
14.66 322.920074
14.67 325.501831
14.68 332.572815
14.69 339.97467
14.70 336.661957
14.71 331.317505
14.72 332.214783
14.73 331.470093
14.74 335.04541
14.75 347.099091
14.76 357.489044
14.77 360.067078
14.78 357.833771
14.79 357.407227
14.80 357.69635
14.81 362.016113
14.82 371.233337
14.83 376.997925
14.84 382.714081
14.85 385.790375
14.86 388.36734
14.87 399.373169
14.88 396.767914
14.89 403.768005
14.90 413.056763
14.91 417.023499
14.92 423.242218
14.93 434.622559
14.94 439.261902
14.95 440.101593
14.96 448.853516
14.97 450.075836
14.98 459.148895
14.99 472.50827
15.00 481.620361
15.01 492.966003
15.02 504.025818
15.03 504.891907
15.04 516.73584
15.05 522.942322
15.06 540.809387
15.07 562.271851
15.08 575.280334
15.09 581.455139
15.10 589.211609
15.11 604.593994
15.12 622.74469
15.13 643.217041
15.14 653.730835
15.15 667.495911
15.16 674.491638
15.17 698.998047
15.18 714.762207
15.19 732.99176
15.20 744.293457
15.21 774.192505
15.22 794.950317
15.23 836.671631
15.24 863.590332
15.25 890.765991
15.26 920.274719
15.27 948.206665
15.28 972.740784
15.29 982.522095
15.30 1005.914185
15.31 1031.263062
15.32 1074.950684
15.33 1096.71814
15.34 1134.665527
15.35 1152.189209
15.36 1176.053345
15.37 1190.765259
15.38 1220.15332
15.39 1239.749756
15.40 1268.413696
15.41 1289.740601
15.42 1296.236816
15.43 1298.900146
15.44 1306.424072
15.45 1304.69812
15.46 1307.066162
15.47 1301.478149
15.48 1289.399658
15.49 1274.384888
15.50 1254.487549
15.51 1204.097534
15.52 1197.181641
15.53 1146.210205
15.54 1118.110107
15.55 1083.972046
15.56 1067.378784
15.57 1039.05542
15.58 1002.308777
15.59 972.531128
15.60 932.202698
15.61 893.469055
15.62 859.135559
15.63 833.348083
15.64 789.566956
15.65 776.658936
15.66 755.30304
15.67 730.414856
15.68 691.377075
15.69 674.13324
15.70 646.403137
15.71 626.907715
15.72 610.781433
15.73 598.764282
15.74 579.089966
15.75 562.661621
15.76 553.035522
15.77 546.336975
15.78 536.022522
15.79 509.892212
15.80 500.345734
15.81 495.730469
15.82 485.823151
15.83 478.39505
15.84 473.97998
15.85 456.580688
15.86 453.617798
15.87 454.702026
15.88 446.735321
15.89 435.606842
15.90 428.575409
15.91 415.318512
15.92 402.678558
15.93 406.075439
15.94 403.245605
15.95 402.069092
15.96 407.079895
15.97 406.493713
15.98 407.376343
15.99 401.875793
16.00 395.954102
16.01 404.754242
16.02 403.80127
16.03 391.830597
16.04 386.746826
16.05 377.458832
16.06 364.528046
16.07 363.083405
16.08 366.435913
16.09 365.899841
16.10 370.650177
16.11 377.733246
16.12 377.271973
16.13 366.930786
16.14 365.029541
16.15 367.412567
16.16 366.093384
16.17 365.291595
16.18 369.283905
16.19 369.316223
16.20 367.694794
16.21 363.257935
16.22 352.543579
16.23 350.899567
16.24 348.163239
16.25 348.039673
16.26 348.160004
16.27 347.597168
16.28 348.992645
16.29 345.403381
16.30 337.558197
16.31 340.44577
16.32 343.360352
16.33 346.323486
16.34 348.673126
16.35 347.521362
16.36 345.574402
16.37 344.996552
16.38 347.430908
16.39 347.329559
16.40 348.1427
16.41 338.742157
16.42 330.464386
16.43 336.04776
16.44 334.652527
16.45 332.633942
16.46 334.575073
16.47 330.110504
16.48 329.208801
16.49 332.066376
16.50 334.89624
16.51 336.856293
16.52 340.654724
16.53 343.904022
16.54 342.411407
16.55 341.084503
16.56 342.895294
16.57 345.323181
16.58 349.550537
16.59 346.819214
16.60 343.868286
16.61 337.808105
16.62 330.31073
16.63 332.693848
16.64 341.140625
16.65 348.574402
16.66 345.029297
16.67 331.984344
16.68 328.718689
16.69 328.351196
16.70 328.078125
16.71 328.456329
16.72 335.403442
16.73 339.896545
16.74 334.020142
16.75 333.914856
16.76 335.694885
16.77 332.679382
16.78 331.309387
16.79 329.040558
16.80 330.731598
16.81 332.732605
16.82 336.103119
16.83 335.516693
16.84 334.948212
16.85 342.682953
16.86 348.125244
16.87 342.169617
16.88 335.107208
16.89 339.5159
16.90 344.997925
16.91 346.033966
16.92 348.372284
16.93 347.127045
16.94 346.519348
16.95 349.374573
16.96 353.256439
16.97 345.923981
16.98 336.679443
16.99 337.718353
17.00 335.718048
17.01 338.498413
17.02 342.488617
17.03 341.797943
17.04 339.367676
17.05 338.07605
17.06 337.332306
17.07 338.586975
17.08 345.59668
17.09 346.312592
17.10 345.417847
17.11 349.751099
17.12 347.162384
17.13 343.677917
17.14 337.358185
17.15 332.699524
17.16 333.65213
17.17 338.967865
17.18 339.687073
17.19 343.759064
17.20 354.279236
17.21 350.836212
17.22 340.562805
17.23 334.122467
17.24 333.187836
17.25 339.696075
17.26 344.059906
17.27 344.581207
17.28 342.045868
17.29 343.247955
17.30 351.08429
17.31 355.350159
17.32 354.930328
17.33 351.538116
17.34 346.460907
17.35 346.359344
17.36 347.920685
17.37 351.65683
17.38 356.814087
17.39 354.468475
17.40 350.813354
17.41 355.870728
17.42 354.551361
17.43 352.401215
17.44 356.701447
17.45 358.28656
17.46 357.432739
17.47 355.145081
17.48 346.731781
17.49 339.572388
17.50 350.017212
17.51 359.818329
17.52 356.81662
17.53 357.335327
17.54 355.569946
17.55 354.84787
17.56 354.671509
17.57 351.677094
17.58 347.859161
17.59 348.481964
17.60 346.12912
17.61 345.40155
17.62 354.092255
17.63 358.099487
17.64 350.469696
17.65 351.203094
17.66 358.783905
17.67 360.628662
17.68 358.125671
17.69 360.654327
17.70 359.884613
17.71 351.860352
17.72 349.931946
17.73 350.015533
17.74 349.459198
17.75 340.04248
17.76 335.050476
17.77 336.65744
17.78 342.669556
17.79 354.981262
17.80 369.762329
17.81 374.167297
17.82 373.958832
17.83 366.711487
17.84 360.898712
17.85 362.16745
17.86 363.447052
17.87 366.402527
17.88 372.644012
17.89 368.40799
17.90 357.483795
17.91 357.608398
17.92 361.5896
17.93 362.361389
17.94 359.355194
17.95 366.216187
17.96 374.575775
17.97 373.673157
17.98 370.335663
17.99 366.832062
18.00 369.078125
18.01 365.599884
18.02 366.347168
18.03 369.209839
18.04 361.451569
18.05 363.64212
18.06 370.713287
18.07 376.990906
18.08 373.466217
18.09 368.629913
18.10 367.806641
18.11 366.994263
18.12 369.147888
18.13 376.616302
18.14 379.779877
18.15 377.145874
18.16 378.018097
18.17 380.266052
18.18 378.86676
18.19 378.366272
18.20 377.620056
18.21 379.689331
18.22 382.850677
18.23 381.945984
18.24 381.329803
18.25 382.315491
18.26 381.539246
18.27 381.707642
18.28 389.318665
18.29 387.714508
18.30 383.889984
18.31 381.20285
18.32 377.852783
18.33 383.621124
18.34 385.255798
18.35 379.353577
18.36 382.109741
18.37 389.653015
18.38 394.231323
18.39 393.944153
18.40 394.801056
18.41 387.991638
18.42 382.193695
18.43 387.346466
18.44 390.562988
18.45 387.790955
18.46 387.611816
18.47 381.350739
18.48 373.645935
18.49 384.560364
18.50 392.302124
18.51 393.522675
18.52 396.586914
18.53 391.209229
18.54 385.878265
18.55 383.453705
18.56 385.986572
18.57 392.993866
18.58 400.819519
18.59 392.405518
18.60 381.750275
18.61 378.876617
18.62 389.619141
18.63 400.445557
18.64 400.282928
18.65 394.279816
18.66 393.163422
18.67 392.204224
18.68 389.408417
18.69 393.543091
18.70 402.843384
18.71 400.998322
18.72 402.348602
18.73 405.293518
18.74 398.998383
18.75 395.597412
18.76 394.133392
18.77 385.884918
18.78 392.104095
18.79 407.267517
18.80 408.314575
18.81 408.096375
18.82 411.08197
18.83 406.413025
18.84 397.340698
18.85 394.951111
18.86 402.7276
18.87 407.90863
18.88 400.931335
18.89 399.318787
18.90 404.707336
18.91 410.223511
18.92 409.141296
18.93 399.877899
18.94 398.465424
18.95 405.656982
18.96 412.304443
18.97 409.653412
18.98 401.89151
18.99 401.967316
19.00 405.686127
19.01 411.284424
19.02 414.676239
19.03 416.755615
19.04 422.237793
19.05 419.564117
19.06 410.421967
19.07 409.106689
19.08 407.019104
19.09 399.674896
19.10 401.881195
19.11 403.314423
19.12 406.697815
19.13 410.170807
19.14 416.686859
19.15 418.467163
19.16 415.115082
19.17 413.184174
19.18 413.830536
19.19 421.642303
19.20 423.822174
19.21 419.488892
19.22 416.98053
19.23 414.433563
19.24 412.686646
19.25 417.960358
19.26 425.711823
19.27 425.061707
19.28 428.639862
19.29 429.971924
19.30 426.699677
19.31 423.621277
19.32 415.403015
19.33 410.241821
19.34 412.703308
19.35 421.112396
19.36 427.056458
19.37 423.641724
19.38 423.434845
19.39 427.42337
19.40 430.647095
19.41 434.869415
19.42 432.117279
19.43 427.222778
19.44 423.084839
19.45 424.778595
19.46 421.342987
19.47 422.709747
19.48 432.08313
19.49 429.115082
19.50 423.654083
19.51 434.980835
19.52 439.683044
19.53 443.444977
19.54 452.293274
19.55 445.89389
19.56 433.852478
19.57 425.463501
19.58 432.490906
19.59 437.449524
19.60 438.988403
19.61 440.621552
19.62 439.048248
19.63 437.132111
19.64 433.289246
19.65 432.975311
19.66 437.003632
19.67 435.183533
19.68 430.284607
19.69 432.716309
19.70 439.472565
19.71 441.156464
19.72 443.254822
19.73 449.281982
19.74 445.027802
19.75 442.908752
19.76 443.389343
19.77 440.097565
19.78 437.172455
19.79 439.818054
19.80 437.831238
19.81 442.706146
19.82 450.833344
19.83 451.029938
19.84 450.75238
19.85 451.862183
19.86 448.203705
19.87 445.516388
19.88 450.328186
19.89 454.645935
19.90 461.002502
19.91 458.423645
19.92 455.016205
19.93 456.068573
19.94 458.901276
19.95 453.508972
19.96 450.080811
19.97 452.592621
19.98 458.828003
19.99 457.370392
20.00 450.841888
20.01 449.407379
20.02 451.118225
20.03 452.826965
20.04 452.412415
20.05 450.72171
20.06 449.983521
20.07 453.067383
20.08 454.957489
20.09 461.943146
20.10 463.665588
20.11 459.462555
20.12 460.666565
20.13 467.666351
20.14 465.418823
20.15 462.903839
20.16 458.571167
20.17 449.442596
20.18 448.449982
20.19 454.10788
20.20 459.583069
20.21 466.091492
20.22 463.313934
20.23 460.033264
20.24 472.206024
20.25 480.067078
20.26 479.364655
20.27 476.869965
20.28 472.322144
20.29 468.814514
20.30 474.851379
20.31 479.33371
20.32 469.375732
20.33 466.255615
20.34 464.636749
20.35 470.272736
20.36 480.398285
20.37 473.117462
20.38 467.664337
20.39 475.22348
20.40 472.263733
20.41 464.525269
20.42 467.818848
20.43 474.762543
20.44 479.755798
20.45 476.60968
20.46 472.147797
20.47 469.715546
20.48 473.900787
20.49 475.261475
20.50 474.789001
20.51 477.262573
20.52 484.65451
20.53 485.042877
20.54 486.162872
20.55 486.66333
20.56 483.593201
20.57 486.608673
20.58 479.934052
20.59 471.100647
20.60 470.172821
20.61 469.76416
