!@!!GADDS PLOTSO FILE: Chi integration type
!@!!Title/SampleName: ML_MAPbX3
!@!!User: NREL
!@!!Site: NREL SERF C211; SN 2510
!@!!Frame: 081022_MLProject_000_002.gfrm
!@!!Wavelengths    1.54184   1.54056   1.54439
!@!!Frame angles: 2Theta: 28.000 Omega: 5.000 Phi: 0.000 Chi: 90.000
!@!!Integration range: 2Theta: 10.000 to 41.100  Gamma: -120.400 to -60.400
!@!!Integration method: bin normalized
!@!N
!@!SS
!@!M
!@!L 0.0 0.0 0.0 0.0
!@!XDegrees
!@!YCounts
10.00 116.859962
10.01 121.50042
10.02 115.057365
10.03 102.478104
10.04 100.922195
10.05 105.827354
10.06 100.511597
10.07 97.861015
10.08 105.207726
10.09 108.108932
10.10 112.626457
10.11 113.681892
10.12 113.995834
10.13 113.570114
10.14 105.393669
10.15 105.602257
10.16 108.719818
10.17 105.283745
10.18 112.501625
10.19 118.739594
10.20 115.890602
10.21 110.322029
10.22 106.530952
10.23 106.925133
10.24 110.978973
10.25 113.853394
10.26 112.949539
10.27 115.691086
10.28 111.057961
10.29 101.854897
10.30 108.452812
10.31 118.889214
10.32 117.31456
10.33 116.340874
10.34 118.673332
10.35 112.627808
10.36 109.204277
10.37 106.170059
10.38 102.863953
10.39 99.311508
10.40 99.215813
10.41 103.854156
10.42 107.659004
10.43 109.498016
10.44 111.864632
10.45 114.984772
10.46 112.749649
10.47 112.439873
10.48 115.753899
10.49 122.599808
10.50 124.695824
10.51 120.562759
10.52 115.668823
10.53 116.895592
10.54 112.918816
10.55 109.320572
10.56 112.287613
10.57 111.906288
10.58 108.254555
10.59 112.376648
10.60 118.626259
10.61 122.737289
10.62 122.780136
10.63 123.391724
10.64 122.182884
10.65 112.712395
10.66 108.335098
10.67 113.543404
10.68 113.726875
10.69 112.242363
10.70 113.374207
10.71 113.845474
10.72 118.444519
10.73 111.675499
10.74 107.883209
10.75 113.618858
10.76 113.321671
10.77 118.895134
10.78 124.373352
10.79 122.225113
10.80 121.302231
10.81 123.296669
10.82 120.126083
10.83 121.317078
10.84 120.949837
10.85 117.057831
10.86 119.641052
10.87 119.742592
10.88 120.856644
10.89 123.355148
10.90 117.858521
10.91 115.475731
10.92 120.701378
10.93 121.572891
10.94 122.042534
10.95 121.184273
10.96 115.760208
10.97 115.043762
10.98 119.141533
10.99 117.857117
11.00 116.739265
11.01 119.41552
11.02 120.355217
11.03 118.413673
11.04 115.130699
11.05 115.545692
11.06 113.983383
11.07 122.004776
11.08 128.650482
11.09 126.383194
11.10 126.171722
11.11 121.801353
11.12 117.312347
11.13 120.355888
11.14 129.669388
11.15 128.355103
11.16 123.678917
11.17 128.084137
11.18 123.589325
11.19 118.960197
11.20 120.53788
11.21 123.05455
11.22 117.456566
11.23 117.328842
11.24 121.347122
11.25 120.207268
11.26 121.00528
11.27 118.618301
11.28 123.073647
11.29 126.622162
11.30 116.087418
11.31 112.594887
11.32 118.211342
11.33 120.375603
11.34 121.439331
11.35 126.689453
11.36 133.638382
11.37 134.675339
11.38 130.411896
11.39 127.351372
11.40 128.872787
11.41 128.343445
11.42 121.302841
11.43 121.839691
11.44 125.103844
11.45 127.14489
11.46 130.554245
11.47 128.211563
11.48 127.035057
11.49 126.867783
11.50 126.734383
11.51 130.787079
11.52 132.279633
11.53 131.652756
11.54 128.803925
11.55 130.295425
11.56 133.119415
11.57 128.612793
11.58 128.169632
11.59 125.895317
11.60 123.295647
11.61 122.656738
11.62 126.839821
11.63 132.160706
11.64 133.510086
11.65 131.891647
11.66 128.012283
11.67 128.994568
11.68 128.454254
11.69 124.214401
11.70 121.471291
11.71 124.313774
11.72 130.79538
11.73 128.49852
11.74 126.122604
11.75 125.01223
11.76 127.291199
11.77 130.123947
11.78 135.952499
11.79 136.073837
11.80 133.982651
11.81 133.234695
11.82 123.868668
11.83 127.61734
11.84 130.495438
11.85 134.068832
11.86 137.737473
11.87 130.447815
11.88 130.119461
11.89 134.806519
11.90 139.912613
11.91 146.733276
11.92 142.083435
11.93 132.068054
11.94 132.438492
11.95 132.320969
11.96 131.225067
11.97 131.191345
11.98 133.859955
11.99 137.658691
12.00 131.987701
12.01 124.68721
12.02 126.843323
12.03 130.934341
12.04 130.245331
12.05 131.381012
12.06 132.260498
12.07 130.766479
12.08 140.241135
12.09 143.448227
12.10 135.18251
12.11 132.993958
12.12 135.424469
12.13 134.829239
12.14 131.321075
12.15 133.788635
12.16 134.482269
12.17 140.62326
12.18 140.474976
12.19 139.10672
12.20 142.327545
12.21 139.901398
12.22 142.940109
12.23 148.201126
12.24 144.650055
12.25 139.007492
12.26 144.47316
12.27 146.657623
12.28 142.066574
12.29 143.944855
12.30 148.269455
12.31 155.656311
12.32 154.958954
12.33 150.454086
12.34 153.852295
12.35 158.616302
12.36 154.662567
12.37 146.762665
12.38 150.25798
12.39 154.515396
12.40 151.597137
12.41 152.713974
12.42 156.648148
12.43 151.072037
12.44 146.825256
12.45 149.179031
12.46 152.926758
12.47 155.703613
12.48 148.904205
12.49 144.94043
12.50 151.298843
12.51 155.627029
12.52 155.309753
12.53 158.792496
12.54 157.466949
12.55 153.553055
12.56 154.656601
12.57 154.474655
12.58 156.8461
12.59 158.818817
12.60 156.527832
12.61 153.859451
12.62 157.009003
12.63 162.196747
12.64 161.591949
12.65 161.534363
12.66 163.860703
12.67 159.357391
12.68 151.915741
12.69 153.393555
12.70 157.860809
12.71 160.605972
12.72 160.439011
12.73 154.076035
12.74 148.422211
12.75 154.392685
12.76 160.725693
12.77 159.896744
12.78 157.62854
12.79 157.760757
12.80 162.156433
12.81 160.247375
12.82 156.067429
12.83 162.616547
12.84 162.400238
12.85 157.714401
12.86 154.544769
12.87 151.137085
12.88 152.969376
12.89 149.66861
12.90 146.599609
12.91 148.628128
12.92 149.317078
12.93 148.090897
12.94 145.569839
12.95 146.828827
12.96 146.974426
12.97 148.152496
12.98 150.452698
12.99 154.666855
13.00 157.118942
13.01 159.469574
13.02 157.505966
13.03 148.881287
13.04 146.142395
13.05 151.106918
13.06 160.261017
13.07 161.178528
13.08 158.388077
13.09 159.588013
13.10 152.184998
13.11 145.584976
13.12 151.542313
13.13 153.811813
13.14 148.605789
13.15 150.596008
13.16 155.934647
13.17 147.076004
13.18 143.689102
13.19 152.049835
13.20 151.422531
13.21 154.406998
13.22 156.07663
13.23 152.09465
13.24 150.604767
13.25 149.8452
13.26 158.169739
13.27 163.597229
13.28 158.215408
13.29 157.838455
13.30 161.586227
13.31 156.410904
13.32 152.891769
13.33 154.063522
13.34 156.999069
13.35 160.353607
13.36 161.81955
13.37 160.598007
13.38 157.183105
13.39 157.225815
13.40 157.919205
13.41 164.345673
13.42 172.054611
13.43 167.875854
13.44 163.309692
13.45 165.478073
13.46 159.511169
13.47 150.77359
13.48 156.710648
13.49 164.136581
13.50 165.475143
13.51 167.29924
13.52 169.420166
13.53 162.510178
13.54 156.957962
13.55 157.126175
13.56 160.171463
13.57 162.163849
13.58 158.581436
13.59 153.872269
13.60 158.19957
13.61 164.259094
13.62 169.58699
13.63 168.479614
13.64 162.836899
13.65 165.100418
13.66 172.076981
13.67 172.447418
13.68 169.887787
13.69 168.827103
13.70 169.213348
13.71 170.232635
13.72 167.842484
13.73 171.131042
13.74 175.268982
13.75 172.192551
13.76 163.775558
13.77 163.153946
13.78 169.803192
13.79 167.509888
13.80 165.483612
13.81 164.419708
13.82 158.148727
13.83 158.424377
13.84 160.489243
13.85 158.951019
13.86 160.881149
13.87 163.154861
13.88 164.985611
13.89 160.260452
13.90 165.499161
13.91 174.723999
13.92 165.419861
13.93 158.901657
13.94 162.713867
13.95 163.082733
13.96 153.958511
13.97 157.273788
13.98 168.736618
13.99 170.718826
14.00 166.352188
14.01 157.103577
14.02 158.363983
14.03 166.907578
14.04 164.030365
14.05 162.940628
14.06 163.788452
14.07 160.025177
14.08 160.870331
14.09 161.34877
14.10 163.288635
14.11 169.226532
14.12 172.33815
14.13 174.202682
14.14 174.143372
14.15 167.033875
14.16 162.135483
14.17 166.621674
14.18 172.953598
14.19 170.019608
14.20 161.149689
14.21 158.592957
14.22 161.768036
14.23 162.076279
14.24 162.978561
14.25 163.731201
14.26 161.577011
14.27 163.529938
14.28 160.882401
14.29 155.702301
14.30 159.419357
14.31 165.534637
14.32 171.359268
14.33 174.632721
14.34 170.59288
14.35 174.99437
14.36 179.001877
14.37 175.094543
14.38 171.080444
14.39 169.277618
14.40 173.234543
14.41 179.072342
14.42 174.387497
14.43 174.496155
14.44 176.371933
14.45 175.294891
14.46 175.145599
14.47 175.270355
14.48 175.447998
14.49 172.955597
14.50 179.692459
14.51 188.185959
14.52 191.145538
14.53 186.667175
14.54 183.226715
14.55 183.52916
14.56 180.70137
14.57 174.813812
14.58 176.984634
14.59 183.770676
14.60 185.155472
14.61 180.205566
14.62 178.487717
14.63 182.423508
14.64 185.397507
14.65 187.31218
14.66 191.463654
14.67 194.260376
14.68 194.400284
14.69 194.802551
14.70 203.121262
14.71 205.878265
14.72 206.773605
14.73 207.510666
14.74 213.37146
14.75 224.559311
14.76 227.131073
14.77 219.446091
14.78 222.414383
14.79 226.612198
14.80 221.134186
14.81 221.08226
14.82 231.922409
14.83 242.586441
14.84 238.519089
14.85 243.789459
14.86 253.285553
14.87 259.672821
14.88 264.244904
14.89 273.301025
14.90 278.614044
14.91 277.268158
14.92 275.790527
14.93 286.4086
14.94 296.979614
14.95 308.084412
14.96 326.544312
14.97 326.53064
14.98 322.97525
14.99 330.710999
15.00 344.307678
15.01 350.921051
15.02 372.452179
15.03 383.384857
15.04 398.998077
15.05 403.972107
15.06 410.472137
15.07 423.38913
15.08 443.171783
15.09 450.122864
15.10 459.317261
15.11 466.512299
15.12 481.068207
15.13 502.770386
15.14 520.168701
15.15 549.167908
15.16 562.667664
15.17 580.922119
15.18 579.308716
15.19 599.292236
15.20 618.079956
15.21 633.863159
15.22 645.77832
15.23 668.815491
15.24 678.725952
15.25 687.481323
15.26 690.184021
15.27 701.929321
15.28 712.265381
15.29 711.512146
15.30 712.982544
15.31 713.965515
15.32 711.375122
15.33 717.411499
15.34 709.735046
15.35 703.272827
15.36 694.449341
15.37 684.289917
15.38 663.576111
15.39 655.208374
15.40 630.451538
15.41 607.473511
15.42 588.996948
15.43 573.236938
15.44 548.109009
15.45 517.32605
15.46 499.639679
15.47 473.418213
15.48 460.614105
15.49 437.243561
15.50 425.915161
15.51 397.111511
15.52 385.64447
15.53 366.181824
15.54 360.319946
15.55 352.015472
15.56 344.919495
15.57 339.871246
15.58 330.29715
15.59 316.854675
15.60 302.335968
15.61 291.759949
15.62 280.848785
15.63 273.265045
15.64 269.489868
15.65 275.596405
15.66 275.348419
15.67 266.607361
15.68 259.978058
15.69 257.862457
15.70 248.009262
15.71 245.949844
15.72 248.418961
15.73 252.273041
15.74 250.473404
15.75 237.562683
15.76 230.843185
15.77 228.27623
15.78 224.645508
15.79 218.393097
15.80 210.212585
15.81 213.805176
15.82 214.854736
15.83 211.260025
15.84 220.976059
15.85 221.694351
15.86 216.892059
15.87 216.917999
15.88 211.702042
15.89 207.081909
15.90 215.261658
15.91 218.143723
15.92 212.469604
15.93 207.731216
15.94 207.223785
15.95 205.186996
15.96 204.566849
15.97 212.122681
15.98 210.836182
15.99 208.304901
16.00 207.177979
16.01 207.676102
16.02 205.358475
16.03 201.444305
16.04 199.168213
16.05 198.978592
16.06 196.577759
16.07 193.181076
16.08 189.686783
16.09 191.062851
16.10 193.285568
16.11 192.088577
16.12 193.983627
16.13 197.844894
16.14 196.877472
16.15 191.229431
16.16 190.393509
16.17 182.67424
16.18 182.407181
16.19 190.458817
16.20 188.952988
16.21 183.614136
16.22 182.725769
16.23 181.599701
16.24 183.176163
16.25 185.510147
16.26 187.270325
16.27 182.190277
16.28 179.629501
16.29 178.943069
16.30 176.934235
16.31 178.143723
16.32 183.394852
16.33 183.980637
16.34 184.180893
16.35 187.622208
16.36 189.1586
16.37 186.419327
16.38 186.802322
16.39 190.259155
16.40 194.117813
16.41 190.865784
16.42 185.7966
16.43 188.260757
16.44 189.749817
16.45 190.309143
16.46 187.19635
16.47 176.214859
16.48 176.971405
16.49 186.932953
16.50 196.621124
16.51 192.364502
16.52 183.163956
16.53 185.520599
16.54 188.684708
16.55 193.944077
16.56 196.775085
16.57 192.52211
16.58 189.908386
16.59 188.8255
16.60 186.885315
16.61 183.942307
16.62 184.214203
16.63 182.742981
16.64 187.28064
16.65 189.003174
16.66 187.69664
16.67 188.43428
16.68 187.184357
16.69 183.643753
16.70 183.334717
16.71 186.128021
16.72 189.983124
16.73 192.66214
16.74 188.998306
16.75 188.370682
16.76 191.741241
16.77 190.175858
16.78 185.285858
16.79 188.165863
16.80 197.564575
16.81 200.302887
16.82 197.380386
16.83 193.350693
16.84 184.347763
16.85 183.436172
16.86 189.361389
16.87 191.612274
16.88 187.761871
16.89 187.961243
16.90 187.368378
16.91 183.334534
16.92 183.89975
16.93 183.642609
16.94 187.241669
16.95 194.228333
16.96 193.268127
16.97 194.61937
16.98 195.466049
16.99 189.580246
17.00 184.641098
17.01 184.996323
17.02 191.620956
17.03 192.254913
17.04 194.21579
17.05 194.831467
17.06 192.31868
17.07 192.11731
17.08 192.517761
17.09 186.073914
17.10 188.299561
17.11 193.411133
17.12 194.204926
17.13 192.63121
17.14 188.8284
17.15 190.514526
17.16 193.181335
17.17 191.301727
17.18 188.606064
17.19 187.533768
17.20 193.110916
17.21 195.101639
17.22 193.074036
17.23 195.599014
17.24 193.579453
17.25 189.715103
17.26 190.325714
17.27 186.839767
17.28 184.131378
17.29 184.301254
17.30 190.81485
17.31 198.237961
17.32 202.090668
17.33 201.028885
17.34 195.106827
17.35 198.055115
17.36 199.98941
17.37 192.36937
17.38 191.513062
17.39 197.065933
17.40 197.393768
17.41 198.081924
17.42 204.796112
17.43 203.951019
17.44 201.12709
17.45 204.568848
17.46 201.305466
17.47 196.009583
17.48 197.581345
17.49 194.799286
17.50 194.477142
17.51 202.012405
17.52 198.956985
17.53 196.246109
17.54 196.849121
17.55 194.413589
17.56 192.781403
17.57 192.102585
17.58 194.83873
17.59 194.511459
17.60 194.977417
17.61 198.520599
17.62 199.390732
17.63 201.868546
17.64 203.193573
17.65 202.375
17.66 204.073898
17.67 200.03363
17.68 197.54924
17.69 198.8181
17.70 198.542908
17.71 196.663956
17.72 195.03154
17.73 195.862289
17.74 197.364655
17.75 201.978134
17.76 208.12149
17.77 206.562698
17.78 200.628326
17.79 200.147308
17.80 206.253784
17.81 212.843048
17.82 210.843719
17.83 208.006149
17.84 210.646439
17.85 211.459869
17.86 208.867676
17.87 206.104721
17.88 205.469788
17.89 203.868713
17.90 201.417389
17.91 199.210358
17.92 201.14267
17.93 203.694351
17.94 205.584641
17.95 202.834412
17.96 199.771652
17.97 201.512009
17.98 207.637161
17.99 214.944901
18.00 209.16098
18.01 205.830948
18.02 204.794006
18.03 196.934509
18.04 195.309082
18.05 198.775589
18.06 201.670624
18.07 206.506363
18.08 203.564102
18.09 206.203583
18.10 212.50177
18.11 205.566986
18.12 200.779877
18.13 200.352753
18.14 201.110703
18.15 207.252853
18.16 208.283051
18.17 207.120209
18.18 211.720627
18.19 210.002304
18.20 207.402817
18.21 208.574326
18.22 209.878708
18.23 208.296875
18.24 205.690948
18.25 206.303024
18.26 202.886108
18.27 207.547241
18.28 212.831635
18.29 212.635071
18.30 210.89212
18.31 212.720093
18.32 215.554504
18.33 216.262711
18.34 217.404099
18.35 214.540482
18.36 210.66806
18.37 211.411804
18.38 216.963913
18.39 221.913315
18.40 221.580505
18.41 218.380325
18.42 214.656708
18.43 216.5784
18.44 216.148743
18.45 208.223175
18.46 211.355209
18.47 219.699112
18.48 226.532669
18.49 225.000748
18.50 221.896759
18.51 221.906067
18.52 221.879547
18.53 228.108963
18.54 225.578171
18.55 216.697464
18.56 218.541504
18.57 216.784912
18.58 219.417236
18.59 219.206848
18.60 214.326538
18.61 217.152695
18.62 219.868835
18.63 218.434662
18.64 218.386215
18.65 220.303665
18.66 220.381897
18.67 215.674835
18.68 216.908188
18.69 224.588348
18.70 224.186646
18.71 219.15831
18.72 214.514435
18.73 214.198898
18.74 216.103928
18.75 222.369049
18.76 227.468582
18.77 223.122269
18.78 219.045532
18.79 219.24971
18.80 217.004959
18.81 218.632187
18.82 222.113037
18.83 219.897705
18.84 219.959564
18.85 218.590561
18.86 221.078659
18.87 225.185852
18.88 229.092911
18.89 228.311005
18.90 223.359467
18.91 223.11998
18.92 227.441879
18.93 228.335953
18.94 229.851593
18.95 229.111374
18.96 226.232849
18.97 224.260284
18.98 224.189835
18.99 223.744904
19.00 231.831085
19.01 238.865662
19.02 235.476196
19.03 232.328339
19.04 230.117157
19.05 231.532791
19.06 233.480301
19.07 230.842911
19.08 226.535858
19.09 223.953979
19.10 223.715271
19.11 220.714279
19.12 214.47435
19.13 216.500336
19.14 220.195343
19.15 224.217178
19.16 229.031342
19.17 221.862732
19.18 214.3349
19.19 217.078323
19.20 222.892136
19.21 229.951538
19.22 233.243896
19.23 233.393387
19.24 233.637756
19.25 230.7939
19.26 232.817932
19.27 234.966309
19.28 232.436478
19.29 230.832108
19.30 229.747482
19.31 227.317169
19.32 227.392303
19.33 234.200897
19.34 240.081223
19.35 237.837387
19.36 232.365982
19.37 235.661392
19.38 240.018082
19.39 238.873093
19.40 236.538467
19.41 230.611511
19.42 230.951843
19.43 237.369308
19.44 240.649002
19.45 241.527908
19.46 236.909348
19.47 232.865479
19.48 235.239166
19.49 237.614182
19.50 234.658768
19.51 234.550064
19.52 237.811783
19.53 233.628113
19.54 237.508163
19.55 243.68721
19.56 242.998093
19.57 242.57193
19.58 242.537827
19.59 243.013077
19.60 244.83696
19.61 243.566772
19.62 245.945114
19.63 253.470535
19.64 251.78981
19.65 249.449173
19.66 253.566574
19.67 258.699554
19.68 250.747971
19.69 240.273758
19.70 242.849045
19.71 249.34729
19.72 241.493195
19.73 234.722717
19.74 238.199478
19.75 243.838989
19.76 246.53215
19.77 244.837189
19.78 241.142639
19.79 246.475082
19.80 252.05806
19.81 248.945572
19.82 249.975754
19.83 247.792099
19.84 242.651108
19.85 241.448761
19.86 244.354706
19.87 254.085449
19.88 256.915009
19.89 256.920258
19.90 258.710175
19.91 254.542969
19.92 252.21167
19.93 254.39798
19.94 252.952286
19.95 248.237595
19.96 241.671295
19.97 242.244034
19.98 246.306183
19.99 247.636841
20.00 248.905197
20.01 246.867279
20.02 249.504181
20.03 252.091553
20.04 252.226486
20.05 255.803101
20.06 257.084808
20.07 255.151321
20.08 253.829529
20.09 259.684143
20.10 261.830627
20.11 260.245728
20.12 262.023682
20.13 260.021881
20.14 259.598999
20.15 259.591675
20.16 255.211212
20.17 252.387192
20.18 260.920166
20.19 265.890198
20.20 259.549591
20.21 249.164078
20.22 244.158401
20.23 251.534943
20.24 262.523712
20.25 267.322296
20.26 267.158783
20.27 266.520782
20.28 260.844482
20.29 256.845764
20.30 260.538544
20.31 264.250519
20.32 263.376953
20.33 266.965912
20.34 264.945068
20.35 254.022339
20.36 252.715866
20.37 253.104675
20.38 253.659393
20.39 254.682098
20.40 253.801498
20.41 259.462372
20.42 265.007599
20.43 268.553558
20.44 270.41156
20.45 268.358551
20.46 264.826874
20.47 262.925659
20.48 261.037781
20.49 261.508392
20.50 261.618134
20.51 264.775177
20.52 272.094055
20.53 269.458984
20.54 268.069336
20.55 272.320648
20.56 270.553986
20.57 273.285248
20.58 273.406952
20.59 269.761475
20.60 273.87973
20.61 277.778534
20.62 274.359497
20.63 269.783691
20.64 271.899414
20.65 274.602142
20.66 274.157715
20.67 271.799011
20.68 272.816345
20.69 269.083496
20.70 268.49646
20.71 270.851929
20.72 271.830139
20.73 272.765869
20.74 273.840363
20.75 273.316833
20.76 271.723724
20.77 273.261841
20.78 274.062744
20.79 270.307434
20.80 268.230774
20.81 270.507538
20.82 272.671478
20.83 281.818542
20.84 279.999878
20.85 276.77771
20.86 280.964294
20.87 283.729492
20.88 279.073242
20.89 275.173615
20.90 273.405609
