!@!!GADDS PLOTSO FILE: Chi integration type
!@!!Title/SampleName: ML_MAPbX3
!@!!User: NREL
!@!!Site: NREL SERF C211; SN 2510
!@!!Frame: 081022_MLProject_000_015.gfrm
!@!!Wavelengths    1.54184   1.54056   1.54439
!@!!Frame angles: 2Theta: 28.000 Omega: 5.000 Phi: 0.000 Chi: 90.000
!@!!Integration range: 2Theta: 10.000 to 41.100  Gamma: -120.400 to -60.400
!@!!Integration method: bin normalized
!@!N
!@!SS
!@!M
!@!L 0.0 0.0 0.0 0.0
!@!XDegrees
!@!YCounts
10.00 206.754852
10.01 201.678848
10.02 199.634659
10.03 205.353424
10.04 209.773758
10.05 206.441666
10.06 207.887909
10.07 209.671875
10.08 208.034378
10.09 214.085388
10.10 215.797546
10.11 214.335175
10.12 207.66748
10.13 202.691315
10.14 209.478745
10.15 211.740784
10.16 201.870178
10.17 196.845917
10.18 198.612549
10.19 195.660675
10.20 202.141571
10.21 205.742996
10.22 201.981949
10.23 196.269379
10.24 204.902313
10.25 214.580612
10.26 210.630112
10.27 203.696609
10.28 203.684525
10.29 195.748932
10.30 188.439957
10.31 196.040756
10.32 200.709442
10.33 205.305618
10.34 200.968796
10.35 198.740448
10.36 203.882401
10.37 204.066971
10.38 198.724304
10.39 195.879166
10.40 196.844742
10.41 207.121429
10.42 212.04982
10.43 209.768631
10.44 210.514633
10.45 210.437241
10.46 213.87796
10.47 219.114624
10.48 217.961197
10.49 218.831161
10.50 225.721542
10.51 219.581573
10.52 207.780533
10.53 204.870361
10.54 208.586899
10.55 212.067841
10.56 214.917603
10.57 210.189392
10.58 210.022934
10.59 217.128616
10.60 212.134995
10.61 213.092651
10.62 219.390976
10.63 221.133392
10.64 221.300293
10.65 223.186951
10.66 229.015152
10.67 225.568405
10.68 219.968124
10.69 217.556198
10.70 217.140182
10.71 218.846817
10.72 222.009308
10.73 222.667236
10.74 222.312607
10.75 226.846664
10.76 232.714767
10.77 227.437592
10.78 221.451157
10.79 224.901535
10.80 231.626953
10.81 237.602112
10.82 229.697372
10.83 221.062103
10.84 220.77388
10.85 220.751831
10.86 219.20816
10.87 217.730667
10.88 216.867157
10.89 216.285202
10.90 217.568604
10.91 221.01059
10.92 226.527374
10.93 225.090851
10.94 224.103668
10.95 222.250916
10.96 219.614014
10.97 216.884811
10.98 215.16246
10.99 220.897842
11.00 225.704437
11.01 229.052612
11.02 224.192856
11.03 214.380035
11.04 217.255157
11.05 228.827072
11.06 227.835403
11.07 219.977188
11.08 219.709259
11.09 229.406174
11.10 236.368378
11.11 233.947601
11.12 232.718246
11.13 232.026733
11.14 228.837128
11.15 226.406631
11.16 222.939163
11.17 217.360107
11.18 215.038071
11.19 219.420517
11.20 229.669968
11.21 234.55983
11.22 232.633026
11.23 231.274567
11.24 227.283783
11.25 225.813324
11.26 223.064835
11.27 223.608841
11.28 225.105789
11.29 226.39888
11.30 226.882065
11.31 230.322128
11.32 234.09343
11.33 231.58902
11.34 224.476852
11.35 228.073288
11.36 234.674988
11.37 234.637054
11.38 236.916428
11.39 236.236496
11.40 232.78125
11.41 232.57872
11.42 241.128006
11.43 241.212173
11.44 234.180542
11.45 237.027008
11.46 243.523407
11.47 240.920044
11.48 238.031738
11.49 241.84552
11.50 243.970963
11.51 244.458481
11.52 246.006805
11.53 240.275406
11.54 239.957993
11.55 250.711121
11.56 243.693726
11.57 234.469589
11.58 244.294067
11.59 248.413116
11.60 253.915085
11.61 250.677643
11.62 237.707306
11.63 234.9608
11.64 235.451157
11.65 234.350769
11.66 234.033554
11.67 243.713058
11.68 251.643967
11.69 254.208237
11.70 250.556473
11.71 250.524811
11.72 252.260391
11.73 249.035355
11.74 251.649994
11.75 251.528671
11.76 248.797821
11.77 243.263733
11.78 244.429276
11.79 250.56369
11.80 244.793976
11.81 247.744553
11.82 254.711304
11.83 254.492966
11.84 257.196838
11.85 251.459137
11.86 253.783936
11.87 252.94017
11.88 244.415436
11.89 252.247726
11.90 257.879303
11.91 262.374664
11.92 261.922394
11.93 262.777222
11.94 264.178406
11.95 259.577545
11.96 259.148956
11.97 260.034668
11.98 262.130432
11.99 261.568756
12.00 257.855164
12.01 262.76178
12.02 266.196259
12.03 266.299286
12.04 275.970673
12.05 277.523651
12.06 281.105377
12.07 275.34494
12.08 268.899445
12.09 276.644653
12.10 279.612
12.11 286.64389
12.12 284.936127
12.13 281.456024
12.14 285.567322
12.15 287.930695
12.16 294.643677
12.17 301.62854
12.18 303.237091
12.19 303.912537
12.20 310.995697
12.21 309.456909
12.22 307.956726
12.23 309.981171
12.24 316.66922
12.25 324.905914
12.26 333.999695
12.27 337.184509
12.28 329.098541
12.29 328.644318
12.30 338.032959
12.31 348.087433
12.32 350.202789
12.33 356.345825
12.34 359.23465
12.35 350.306763
12.36 351.056274
12.37 365.273651
12.38 375.840271
12.39 378.283752
12.40 365.983551
12.41 370.251068
12.42 379.684021
12.43 383.590363
12.44 398.252197
12.45 408.39212
12.46 408.492645
12.47 403.040833
12.48 402.249023
12.49 410.453674
12.50 422.971069
12.51 422.575348
12.52 421.662933
12.53 422.725586
12.54 429.516846
12.55 433.132233
12.56 432.004303
12.57 433.989838
12.58 436.668427
12.59 437.674957
12.60 443.253357
12.61 444.941254
12.62 443.745483
12.63 443.207458
12.64 434.034027
12.65 424.637085
12.66 421.098297
12.67 425.497986
12.68 417.575378
12.69 411.52066
12.70 412.153778
12.71 407.732086
12.72 392.857178
12.73 377.976105
12.74 371.995392
12.75 366.842743
12.76 362.365326
12.77 354.705536
12.78 357.65329
12.79 354.14621
12.80 352.079376
12.81 344.739288
12.82 329.547058
12.83 322.200562
12.84 325.717255
12.85 322.60556
12.86 313.819061
12.87 307.769714
12.88 307.794617
12.89 303.383545
12.90 298.031799
12.91 300.449219
12.92 293.896851
12.93 288.836945
12.94 293.394653
12.95 295.994873
12.96 302.585663
12.97 305.97644
12.98 299.249268
12.99 292.961426
13.00 287.626129
13.01 286.772919
13.02 290.086487
13.03 290.637207
13.04 291.188416
13.05 292.981262
13.06 287.576691
13.07 283.936829
13.08 278.417145
13.09 270.316437
13.10 281.481079
13.11 286.360321
13.12 288.576721
13.13 295.62326
13.14 292.877319
13.15 291.364197
13.16 292.038727
13.17 291.561005
13.18 288.025085
13.19 284.628601
13.20 283.654327
13.21 280.251862
13.22 279.518585
13.23 281.669434
13.24 280.714844
13.25 282.886932
13.26 285.771545
13.27 283.98996
13.28 283.486053
13.29 285.034698
13.30 287.49234
13.31 289.396118
13.32 297.162903
13.33 299.059875
13.34 292.89856
13.35 292.050476
13.36 289.899109
13.37 292.663971
13.38 293.921631
13.39 293.673737
13.40 295.213165
13.41 294.47406
13.42 290.097046
13.43 292.452332
13.44 295.804596
13.45 296.614899
13.46 297.196411
13.47 301.439056
13.48 302.778046
13.49 297.015533
13.50 295.753204
13.51 292.686859
13.52 289.110229
13.53 295.55069
13.54 309.0578
13.55 312.490173
13.56 308.82959
13.57 303.949585
13.58 300.394531
13.59 298.489624
13.60 307.353271
13.61 318.061615
13.62 316.273224
13.63 310.62439
13.64 313.034698
13.65 321.268188
13.66 326.746246
13.67 330.747467
13.68 332.252686
13.69 337.867188
13.70 340.490723
13.71 342.286133
13.72 348.243713
13.73 354.90509
13.74 362.940155
13.75 376.021332
13.76 373.736115
13.77 369.218719
13.78 370.425385
13.79 371.792694
13.80 376.915375
13.81 378.543976
13.82 383.125977
13.83 397.502502
13.84 410.72702
13.85 409.62738
13.86 411.443695
13.87 412.27533
13.88 412.478699
13.89 423.057739
13.90 443.199921
13.91 452.474091
13.92 442.952728
13.93 445.901855
13.94 463.268768
13.95 465.809631
13.96 474.73941
13.97 484.55304
13.98 497.43811
13.99 515.617737
14.00 526.435852
14.01 531.613464
14.02 541.731079
14.03 556.355103
14.04 554.39917
14.05 550.710144
14.06 566.699036
14.07 583.467346
14.08 590.549622
14.09 601.783936
14.10 604.42395
14.11 610.938538
14.12 616.460938
14.13 622.129395
14.14 621.966797
14.15 628.880127
14.16 643.696777
14.17 650.575684
14.18 656.946899
14.19 658.76355
14.20 661.154663
14.21 664.910217
14.22 665.748535
14.23 660.643127
14.24 648.771179
14.25 648.225647
14.26 648.834229
14.27 632.437744
14.28 613.505371
14.29 605.054504
14.30 590.646362
14.31 589.047913
14.32 577.503479
14.33 561.603638
14.34 541.842102
14.35 537.604126
14.36 536.958923
14.37 523.981384
14.38 502.367279
14.39 478.155762
14.40 461.006409
14.41 447.136353
14.42 444.855316
14.43 439.422455
14.44 426.368073
14.45 419.861725
14.46 419.724762
14.47 413.643433
14.48 407.56842
14.49 403.641846
14.50 397.537872
14.51 380.565735
14.52 389.892273
14.53 387.708557
14.54 377.283234
14.55 379.30957
14.56 371.037628
14.57 366.749786
14.58 368.710876
14.59 365.522186
14.60 364.435028
14.61 366.696625
14.62 372.132111
14.63 370.656128
14.64 367.593781
14.65 361.721313
14.66 354.452606
14.67 357.89563
14.68 354.917908
14.69 340.582825
14.70 347.518982
14.71 358.709503
14.72 364.118958
14.73 362.769928
14.74 365.413666
14.75 371.936035
14.76 370.768616
14.77 368.318359
14.78 374.218445
14.79 380.904785
14.80 364.460022
14.81 354.855133
14.82 366.976471
14.83 379.639343
14.84 380.022247
14.85 378.226776
14.86 385.073303
14.87 388.433929
14.88 382.909882
14.89 380.35791
14.90 379.195679
14.91 379.626038
14.92 385.170166
14.93 396.054901
14.94 398.287109
14.95 406.899109
14.96 415.878723
14.97 413.06015
14.98 415.604431
14.99 418.103271
15.00 423.467102
15.01 426.495972
15.02 442.404572
15.03 455.011047
15.04 462.512604
15.05 460.003723
15.06 455.801941
15.07 459.647308
15.08 469.073029
15.09 471.564362
15.10 485.130768
15.11 491.069519
15.12 490.43222
15.13 498.438141
15.14 505.501526
15.15 517.782349
15.16 520.87262
15.17 525.392395
15.18 528.989502
15.19 528.407593
15.20 540.045776
15.21 550.897949
15.22 549.85376
15.23 550.490295
15.24 552.78064
15.25 557.23822
15.26 555.353577
15.27 554.211121
15.28 551.846924
15.29 546.967896
15.30 543.859863
15.31 549.294189
15.32 560.222717
15.33 552.054688
15.34 540.955933
15.35 546.368347
15.36 544.052368
15.37 531.69397
15.38 528.218506
15.39 530.490601
15.40 515.810974
15.41 508.813354
15.42 505.61438
15.43 491.538971
15.44 482.43692
15.45 476.913147
15.46 466.41983
15.47 461.191833
15.48 459.302399
15.49 447.490387
15.50 435.586548
15.51 425.591614
15.52 421.161011
15.53 413.8992
15.54 408.331116
15.55 404.338165
15.56 403.743408
15.57 396.607513
15.58 391.736237
15.59 391.899811
15.60 379.386139
15.61 362.782135
15.62 366.706482
15.63 372.232422
15.64 368.533997
15.65 361.479492
15.66 358.30423
15.67 355.182861
15.68 348.975433
15.69 352.8992
15.70 350.659027
15.71 346.12439
15.72 350.380707
15.73 350.693939
15.74 343.414032
15.75 338.653931
15.76 346.146484
15.77 349.751038
15.78 340.546295
15.79 331.500244
15.80 337.378906
15.81 344.898285
15.82 335.450775
15.83 324.619843
15.84 332.127808
15.85 339.728699
15.86 339.11731
15.87 338.667877
15.88 338.835052
15.89 339.705475
15.90 344.474457
15.91 352.590149
15.92 344.780334
15.93 338.526978
15.94 338.4039
15.95 334.547729
15.96 340.46344
15.97 344.724792
15.98 342.478424
15.99 345.582581
16.00 343.550629
16.01 335.056061
16.02 334.116302
16.03 333.928314
16.04 331.158569
16.05 335.933167
16.06 336.610931
16.07 332.155457
16.08 337.388367
16.09 334.406158
16.10 332.68454
16.11 334.947327
16.12 327.704773
16.13 326.166077
16.14 330.149719
16.15 346.023712
16.16 351.659882
16.17 345.939697
16.18 338.358643
16.19 330.567139
16.20 331.766846
16.21 334.686981
16.22 335.979034
16.23 342.239502
16.24 340.159149
16.25 336.944733
16.26 339.617767
16.27 340.313904
16.28 336.366028
16.29 338.502808
16.30 346.17868
16.31 346.27655
16.32 338.421051
16.33 340.033813
16.34 338.135254
16.35 332.224823
16.36 330.513153
16.37 335.112274
16.38 341.432709
16.39 347.207794
16.40 348.297638
16.41 342.103302
16.42 336.708038
16.43 340.826843
16.44 339.923187
16.45 345.589508
16.46 348.587067
16.47 344.237762
16.48 344.867126
16.49 350.626526
16.50 348.923767
16.51 344.660248
16.52 348.364349
16.53 352.951538
16.54 350.834259
16.55 341.655731
16.56 342.509796
16.57 345.002441
16.58 348.885529
16.59 354.037964
16.60 349.617554
16.61 348.868378
16.62 348.524597
16.63 342.187317
16.64 341.968079
16.65 346.205444
16.66 345.45459
16.67 341.794189
16.68 343.421173
16.69 343.764008
16.70 341.776489
16.71 346.024933
16.72 347.808685
16.73 346.573883
16.74 354.853058
16.75 357.898682
16.76 355.158508
16.77 349.944977
16.78 348.879517
16.79 352.799866
16.80 355.828278
16.81 359.10141
16.82 352.609772
16.83 348.283386
16.84 346.382568
16.85 351.034485
16.86 357.487488
16.87 357.302521
16.88 354.891388
16.89 353.035004
16.90 351.853638
16.91 357.272949
16.92 363.720245
16.93 359.277802
16.94 355.00058
16.95 351.645874
16.96 351.88327
16.97 356.23111
16.98 359.520844
16.99 361.068909
17.00 361.045654
17.01 358.925385
17.02 353.862122
17.03 350.269501
17.04 356.123901
17.05 361.514496
17.06 368.210297
17.07 363.39856
17.08 356.358521
17.09 357.281647
17.10 357.403198
17.11 356.527954
17.12 355.75238
17.13 355.519775
17.14 357.959564
17.15 361.854401
17.16 361.753723
17.17 365.230225
17.18 364.633331
17.19 363.384033
17.20 363.317444
17.21 358.177612
17.22 359.657654
17.23 365.573547
17.24 365.128235
17.25 364.510742
17.26 364.296814
17.27 365.254669
17.28 368.756927
17.29 362.79126
17.30 354.479431
17.31 360.184723
17.32 371.94693
17.33 370.23642
17.34 368.767181
17.35 369.066833
17.36 365.5961
17.37 367.922333
17.38 371.751831
17.39 375.058716
17.40 370.781616
17.41 369.019196
17.42 369.036621
17.43 370.376801
17.44 366.49585
17.45 360.832855
17.46 358.087708
17.47 369.39447
17.48 375.291718
17.49 371.006226
17.50 371.245331
17.51 365.594238
17.52 358.486816
17.53 366.751068
17.54 381.051849
17.55 379.603088
17.56 367.194
17.57 365.708038
17.58 370.495544
17.59 373.928467
17.60 377.507507
17.61 377.939209
17.62 378.405975
17.63 381.558746
17.64 386.060455
17.65 389.921051
17.66 395.267578
17.67 395.8909
17.68 389.522095
17.69 385.469421
17.70 385.806488
17.71 385.908234
17.72 380.516907
17.73 379.534607
17.74 384.432587
17.75 389.847046
17.76 391.845947
17.77 386.625
17.78 381.785736
17.79 374.459167
17.80 372.531525
17.81 373.920013
17.82 377.505798
17.83 378.807129
17.84 381.561523
17.85 384.604584
17.86 392.642853
17.87 386.708374
17.88 379.323242
17.89 381.350891
17.90 378.761566
17.91 378.727814
17.92 383.770111
17.93 381.718048
17.94 386.319702
17.95 389.588654
17.96 390.41571
17.97 393.449707
17.98 397.284058
17.99 397.384369
18.00 395.191895
18.01 397.99765
18.02 391.932007
18.03 380.313293
18.04 377.213837
18.05 378.744568
18.06 381.979706
18.07 385.128876
18.08 386.945251
18.09 394.368591
18.10 405.022797
18.11 412.45929
18.12 408.631134
18.13 402.39978
18.14 403.766724
18.15 397.289673
18.16 386.334167
18.17 377.97876
18.18 381.582642
18.19 387.321228
18.20 389.296814
18.21 394.797638
18.22 397.723267
18.23 396.394501
18.24 399.383881
18.25 403.401062
18.26 401.465363
18.27 409.199585
18.28 415.895355
18.29 411.058624
18.30 409.09317
18.31 411.669495
18.32 412.195465
18.33 415.012024
18.34 414.190704
18.35 409.838776
18.36 401.137146
18.37 398.032166
18.38 402.338715
18.39 405.102112
18.40 411.0354
18.41 409.855103
18.42 406.28891
18.43 403.77121
18.44 408.523041
18.45 420.400269
18.46 416.759277
18.47 406.113434
18.48 407.941772
18.49 412.266418
18.50 412.193268
18.51 418.32135
18.52 427.160217
18.53 427.497559
18.54 425.385284
18.55 419.703552
18.56 414.738953
18.57 407.448914
18.58 410.467163
18.59 409.427979
18.60 407.125946
18.61 412.47876
18.62 417.095367
18.63 417.648651
18.64 420.927734
18.65 422.575226
18.66 418.881226
18.67 417.162628
18.68 416.950714
18.69 417.65152
18.70 420.68454
18.71 425.958618
18.72 421.187408
18.73 410.807281
18.74 406.454224
18.75 409.19223
18.76 415.640411
18.77 419.696259
18.78 431.451508
18.79 440.869293
18.80 435.555542
18.81 431.391907
18.82 427.871185
18.83 433.496643
18.84 438.308838
18.85 439.613037
18.86 435.166534
18.87 426.926727
18.88 420.695892
18.89 422.083679
18.90 429.54657
18.91 431.294861
18.92 436.530518
18.93 439.889801
18.94 431.355164
18.95 423.898743
18.96 423.724854
18.97 428.839294
18.98 431.109589
18.99 429.399628
19.00 426.676361
19.01 423.12384
19.02 429.562866
19.03 430.043152
19.04 427.45993
19.05 430.225433
19.06 436.000885
19.07 441.968811
19.08 439.079254
19.09 434.91333
19.10 437.822266
19.11 441.058319
19.12 439.168457
19.13 436.503235
19.14 436.784332
19.15 433.89035
19.16 433.045776
19.17 443.218964
19.18 445.968994
19.19 437.162445
19.20 429.604156
19.21 435.68866
19.22 448.453613
19.23 449.38913
19.24 447.42746
19.25 448.591644
19.26 446.329468
19.27 449.579529
19.28 449.050018
19.29 441.506805
19.30 437.47641
19.31 430.574829
19.32 430.471527
19.33 440.54248
19.34 449.841064
19.35 453.874817
19.36 453.156403
19.37 452.262817
19.38 450.813782
19.39 459.
19.40 458.95462
19.41 463.827789
19.42 461.187317
19.43 456.54129
19.44 460.641876
19.45 457.310303
19.46 459.181244
19.47 463.132935
19.48 462.657288
19.49 463.006012
19.50 460.577271
19.51 460.372833
19.52 459.278625
19.53 462.177216
19.54 471.102356
19.55 474.222382
19.56 462.869232
19.57 455.138123
19.58 462.517578
19.59 466.440002
19.60 461.966736
19.61 461.208588
19.62 467.533997
19.63 471.465088
19.64 471.764496
19.65 466.581726
19.66 467.052399
19.67 468.951172
19.68 465.007507
19.69 467.191406
19.70 471.210938
19.71 470.49823
19.72 465.168518
19.73 463.776855
19.74 467.636688
19.75 477.034363
19.76 481.123413
19.77 483.7276
19.78 478.393921
19.79 475.365265
19.80 481.443634
19.81 484.610382
19.82 478.223663
19.83 475.782959
19.84 478.604004
19.85 476.642731
19.86 480.295563
19.87 478.989349
19.88 474.412354
19.89 477.429504
19.90 480.49942
19.91 477.27774
19.92 483.356689
19.93 491.290466
19.94 486.109375
19.95 486.881409
19.96 492.611847
19.97 487.571442
19.98 488.212402
19.99 494.310608
20.00 492.445984
20.01 495.820313
20.02 497.616302
20.03 499.664093
20.04 501.374786
20.05 497.656067
20.06 493.427307
20.07 492.089722
20.08 499.019623
20.09 502.894348
20.10 499.509521
20.11 499.426147
20.12 508.345795
20.13 514.452393
20.14 516.424255
20.15 511.317596
20.16 503.089752
20.17 494.664093
20.18 496.584595
20.19 499.240845
20.20 499.000397
20.21 498.224945
20.22 494.793915
20.23 499.068054
20.24 506.460266
20.25 508.948303
20.26 508.704041
20.27 501.486023
20.28 501.549133
20.29 511.840851
20.30 515.954163
20.31 511.174042
20.32 502.750519
20.33 500.848145
20.34 504.366913
20.35 508.898804
20.36 513.973206
20.37 517.178467
20.38 511.670319
20.39 509.089325
20.40 512.896423
20.41 521.577454
20.42 525.296448
20.43 515.923645
20.44 505.660675
20.45 503.870148
20.46 508.342102
20.47 512.686462
20.48 514.946838
20.49 514.814331
20.50 509.014069
20.51 511.686157
20.52 508.798553
20.53 509.487976
20.54 512.696045
20.55 514.862183
20.56 514.135803
20.57 517.452087
20.58 517.667603
20.59 512.714294
20.60 508.194031
20.61 504.482269
20.62 506.436096
20.63 510.768005
20.64 509.353973
20.65 504.621857
20.66 502.354401
20.67 505.559784
20.68 503.914581
20.69 511.085754
20.70 517.145081
20.71 513.6474
20.72 519.56897
20.73 525.820679
20.74 524.59314
20.75 523.146973
20.76 518.94519
20.77 522.66925
20.78 523.613342
20.79 518.5354
20.80 519.513916
20.81 525.178772
20.82 529.70575
20.83 534.102112
20.84 535.220154
20.85 538.301819
20.86 539.655334
20.87 534.290161
20.88 529.522156
20.89 526.386475
20.90 524.542725
20.91 524.874939
20.92 524.308716
