!@!!GADDS PLOTSO FILE: Chi integration type
!@!!Title/SampleName: ML_MAPbX3
!@!!User: NREL
!@!!Site: NREL SERF C211; SN 2510
!@!!Frame: 081022_MLProject_000_009.gfrm
!@!!Wavelengths    1.54184   1.54056   1.54439
!@!!Frame angles: 2Theta: 28.000 Omega: 5.000 Phi: 0.000 Chi: 90.000
!@!!Integration range: 2Theta: 10.000 to 41.100  Gamma: -120.400 to -60.400
!@!!Integration method: bin normalized
!@!N
!@!SS
!@!M
!@!L 0.0 0.0 0.0 0.0
!@!XDegrees
!@!YCounts
10.00 192.65451
10.01 201.924377
10.02 206.720184
10.03 195.978806
10.04 190.276352
10.05 196.69043
10.06 198.044556
10.07 202.131058
10.08 201.750519
10.09 198.191391
10.10 196.013519
10.11 196.914841
10.12 199.42688
10.13 200.433945
10.14 207.086456
10.15 204.388977
10.16 203.551743
10.17 199.335648
10.18 194.991074
10.19 195.901688
10.20 197.384262
10.21 200.126785
10.22 198.945206
10.23 197.205215
10.24 200.497833
10.25 206.280243
10.26 197.162186
10.27 206.375015
10.28 210.576675
10.29 201.507004
10.30 211.41452
10.31 210.946136
10.32 204.563766
10.33 207.647919
10.34 202.909958
10.35 199.724777
10.36 203.471573
10.37 208.73233
10.38 212.623566
10.39 206.753021
10.40 206.69191
10.41 209.882187
10.42 209.797546
10.43 205.676804
10.44 201.929962
10.45 211.111237
10.46 218.719849
10.47 216.264404
10.48 213.886642
10.49 216.052414
10.50 217.049484
10.51 211.698944
10.52 211.303375
10.53 209.839859
10.54 215.011139
10.55 223.085159
10.56 214.911911
10.57 205.577881
10.58 206.234406
10.59 213.180725
10.60 218.551208
10.61 219.523087
10.62 214.544235
10.63 214.959015
10.64 214.503448
10.65 212.311905
10.66 214.593704
10.67 211.011154
10.68 211.355438
10.69 226.62706
10.70 235.370758
10.71 224.073318
10.72 221.753464
10.73 221.626099
10.74 215.754944
10.75 218.337555
10.76 216.218689
10.77 213.794968
10.78 214.002457
10.79 211.109253
10.80 212.133713
10.81 215.869476
10.82 217.327423
10.83 223.019516
10.84 223.592896
10.85 220.592133
10.86 225.573334
10.87 221.796982
10.88 216.192596
10.89 208.491562
10.90 211.510101
10.91 214.297775
10.92 212.687454
10.93 211.575989
10.94 206.69519
10.95 212.631821
10.96 214.62326
10.97 218.251678
10.98 220.289719
10.99 220.323303
11.00 224.489853
11.01 229.226654
11.02 229.111069
11.03 223.947006
11.04 222.574371
11.05 222.234604
11.06 219.785995
11.07 218.219879
11.08 214.476379
11.09 212.326614
11.10 223.71405
11.11 227.302292
11.12 231.424591
11.13 236.108307
11.14 240.070557
11.15 245.467926
11.16 239.748962
11.17 234.372604
11.18 235.853226
11.19 231.1642
11.20 230.001175
11.21 235.089081
11.22 231.425186
11.23 233.993103
11.24 233.897141
11.25 233.216919
11.26 235.004242
11.27 233.023956
11.28 230.422836
11.29 223.341415
11.30 223.020233
11.31 225.295425
11.32 221.497482
11.33 222.990906
11.34 232.751984
11.35 237.39801
11.36 234.214966
11.37 228.775085
11.38 236.263016
11.39 239.929153
11.40 228.338913
11.41 229.673462
11.42 235.242401
11.43 228.772308
11.44 221.463135
11.45 227.717194
11.46 241.223648
11.47 247.196808
11.48 246.850388
11.49 237.351715
11.50 232.831131
11.51 228.570419
11.52 230.559998
11.53 239.661987
11.54 244.867828
11.55 246.536636
11.56 235.362411
11.57 234.272858
11.58 240.443649
11.59 234.774231
11.60 234.910217
11.61 237.329956
11.62 232.229446
11.63 229.777893
11.64 227.653366
11.65 230.301315
11.66 237.959534
11.67 239.602448
11.68 243.192078
11.69 239.144577
11.70 237.37619
11.71 237.62619
11.72 237.709152
11.73 236.815414
11.74 237.93103
11.75 242.193909
11.76 245.213043
11.77 248.470215
11.78 247.595703
11.79 245.975693
11.80 240.856644
11.81 238.346252
11.82 230.038193
11.83 226.640427
11.84 236.070007
11.85 247.631851
11.86 256.913208
11.87 257.200226
11.88 250.170654
11.89 245.858185
11.90 250.893631
11.91 255.449463
11.92 258.527496
11.93 257.196533
11.94 247.542984
11.95 246.069992
11.96 249.986542
11.97 246.956635
11.98 243.669968
11.99 247.210739
12.00 253.733017
12.01 251.318176
12.02 247.634842
12.03 248.726746
12.04 246.426758
12.05 245.066788
12.06 248.120056
12.07 250.418167
12.08 252.880035
12.09 258.979309
12.10 265.576599
12.11 262.838898
12.12 253.309311
12.13 256.449646
12.14 257.103821
12.15 256.398224
12.16 264.235229
12.17 267.435089
12.18 266.533264
12.19 269.611084
12.20 261.644592
12.21 256.063385
12.22 259.554291
12.23 268.037018
12.24 276.386902
12.25 278.683624
12.26 279.509491
12.27 272.815033
12.28 260.745972
12.29 267.128082
12.30 276.270691
12.31 273.973572
12.32 273.581696
12.33 274.840118
12.34 282.227234
12.35 291.793274
12.36 287.628326
12.37 277.358246
12.38 277.987
12.39 277.522766
12.40 274.591156
12.41 274.736603
12.42 282.245087
12.43 288.601257
12.44 291.164703
12.45 295.536133
12.46 296.21283
12.47 302.504517
12.48 300.870667
12.49 290.712067
12.50 294.873596
12.51 292.124817
12.52 292.04599
12.53 297.628418
12.54 303.467743
12.55 306.518127
12.56 301.973999
12.57 301.2677
12.58 298.749268
12.59 299.453735
12.60 301.95285
12.61 299.959473
12.62 301.73288
12.63 308.691223
12.64 310.683136
12.65 311.92395
12.66 305.998871
12.67 303.365356
12.68 309.097687
12.69 314.25177
12.70 301.919006
12.71 291.435516
12.72 284.723969
12.73 281.024567
12.74 286.727753
12.75 282.458221
12.76 286.80542
12.77 291.563629
12.78 287.875793
12.79 290.653687
12.80 291.888519
12.81 290.385651
12.82 287.367126
12.83 285.933502
12.84 286.86908
12.85 285.040009
12.86 295.376953
12.87 300.154816
12.88 288.832031
12.89 286.269409
12.90 289.379608
12.91 284.297607
12.92 277.951752
12.93 271.305969
12.94 265.504974
12.95 264.02771
12.96 271.937897
12.97 275.035797
12.98 265.202087
12.99 272.830414
13.00 281.924072
13.01 279.183014
13.02 280.977783
13.03 276.224396
13.04 265.923462
13.05 266.696686
13.06 271.469513
13.07 267.234314
13.08 266.607391
13.09 271.740265
13.10 278.329773
13.11 279.985321
13.12 272.691315
13.13 266.016083
13.14 261.056183
13.15 266.793762
13.16 279.509155
13.17 277.922913
13.18 272.217834
13.19 274.490387
13.20 275.431091
13.21 273.391205
13.22 269.224854
13.23 262.311951
13.24 261.675964
13.25 265.731232
13.26 270.346008
13.27 266.592682
13.28 264.655945
13.29 266.629211
13.30 269.677063
13.31 277.800751
13.32 275.803284
13.33 266.13855
13.34 266.681549
13.35 273.772736
13.36 279.258575
13.37 276.200745
13.38 270.358002
13.39 270.998077
13.40 274.815948
13.41 270.394501
13.42 267.02655
13.43 269.803955
13.44 271.847748
13.45 272.151459
13.46 274.428223
13.47 282.205261
13.48 281.072083
13.49 277.804138
13.50 273.543579
13.51 265.922058
13.52 259.45047
13.53 256.600067
13.54 267.791962
13.55 275.148193
13.56 271.031158
13.57 268.995758
13.58 272.500153
13.59 265.427002
13.60 264.976929
13.61 268.02478
13.62 270.121765
13.63 275.067596
13.64 279.146637
13.65 282.190002
13.66 280.58493
13.67 281.140778
13.68 287.972229
13.69 297.698212
13.70 297.578583
13.71 289.699188
13.72 278.565765
13.73 277.89917
13.74 276.558594
13.75 275.05426
13.76 286.462738
13.77 290.723145
13.78 287.861847
13.79 281.151947
13.80 276.223724
13.81 277.449463
13.82 283.702667
13.83 285.460632
13.84 278.837219
13.85 272.878113
13.86 274.551086
13.87 280.538605
13.88 288.637817
13.89 292.590179
13.90 293.291199
13.91 288.724091
13.92 283.150238
13.93 289.811615
13.94 288.724762
13.95 287.481293
13.96 292.211456
13.97 294.886139
13.98 290.214203
13.99 282.7901
14.00 286.723846
14.01 294.454102
14.02 294.220459
14.03 290.949951
14.04 290.814117
14.05 291.152985
14.06 291.610443
14.07 296.184906
14.08 297.658844
14.09 291.356812
14.10 285.197296
14.11 294.199127
14.12 297.336456
14.13 286.91037
14.14 285.998779
14.15 283.924011
14.16 288.704559
14.17 294.830048
14.18 294.024261
14.19 293.530151
14.20 296.841522
14.21 293.240631
14.22 291.459534
14.23 295.200409
14.24 290.919128
14.25 284.916016
14.26 291.471619
14.27 301.329132
14.28 301.731049
14.29 300.565491
14.30 288.346375
14.31 290.648651
14.32 295.111267
14.33 293.434357
14.34 293.966217
14.35 298.349304
14.36 301.829712
14.37 295.729126
14.38 304.493408
14.39 313.670593
14.40 314.840057
14.41 311.972626
14.42 309.332977
14.43 307.549835
14.44 304.49408
14.45 300.608643
14.46 294.210663
14.47 301.988312
14.48 310.625061
14.49 312.439423
14.50 312.585693
14.51 309.003784
14.52 305.376129
14.53 305.631317
14.54 311.96579
14.55 325.579559
14.56 328.187683
14.57 320.395569
14.58 314.649689
14.59 312.573608
14.60 320.242554
14.61 319.690063
14.62 322.053528
14.63 327.02179
14.64 326.978424
14.65 323.626587
14.66 324.286438
14.67 330.22702
14.68 334.88916
14.69 344.011658
14.70 355.723267
14.71 364.945801
14.72 367.786255
14.73 358.950531
14.74 360.737762
14.75 370.778595
14.76 367.585236
14.77 362.801025
14.78 368.28476
14.79 374.224884
14.80 381.857056
14.81 391.38443
14.82 401.364594
14.83 400.544312
14.84 398.648987
14.85 409.583832
14.86 411.896851
14.87 419.316254
14.88 430.73465
14.89 428.847961
14.90 424.232391
14.91 426.811066
14.92 435.710846
14.93 443.505157
14.94 442.103851
14.95 449.836914
14.96 465.965637
14.97 480.382996
14.98 491.94043
14.99 493.057373
15.00 498.338165
15.01 504.64502
15.02 519.03186
15.03 537.645996
15.04 548.132019
15.05 558.71582
15.06 570.818542
15.07 571.263306
15.08 572.728088
15.09 588.098206
15.10 597.446655
15.11 609.774902
15.12 617.921082
15.13 621.109253
15.14 620.514404
15.15 616.906189
15.16 626.855286
15.17 643.354065
15.18 649.359192
15.19 647.248596
15.20 634.039612
15.21 633.424927
15.22 644.253052
15.23 639.536682
15.24 632.11731
15.25 630.399597
15.26 614.206482
15.27 600.751282
15.28 589.912048
15.29 582.741882
15.30 572.440857
15.31 561.85498
15.32 546.512207
15.33 532.236633
15.34 517.20105
15.35 510.981567
15.36 501.380676
15.37 482.536652
15.38 458.404907
15.39 452.617188
15.40 442.778992
15.41 439.515045
15.42 426.885681
15.43 407.338623
15.44 403.658539
15.45 394.635223
15.46 393.624084
15.47 395.661835
15.48 396.353668
15.49 397.504669
15.50 392.823944
15.51 370.613983
15.52 360.367981
15.53 360.453278
15.54 356.6651
15.55 360.716949
15.56 358.583344
15.57 351.467529
15.58 340.911469
15.59 334.153961
15.60 342.458069
15.61 351.21582
15.62 351.671661
15.63 346.417938
15.64 346.497467
15.65 344.684204
15.66 336.596344
15.67 328.328583
15.68 321.624329
15.69 320.511566
15.70 330.304047
15.71 337.803345
15.72 335.600891
15.73 335.232483
15.74 336.861023
15.75 332.942169
15.76 329.044373
15.77 334.580353
15.78 335.503235
15.79 336.348785
15.80 337.821472
15.81 342.113953
15.82 341.810852
15.83 334.210236
15.84 331.714844
15.85 328.673615
15.86 329.316742
15.87 333.969971
15.88 328.261505
15.89 327.236267
15.90 335.280853
15.91 337.565765
15.92 331.151031
15.93 324.328766
15.94 320.331543
15.95 323.239899
15.96 325.364258
15.97 334.699646
15.98 339.918915
15.99 327.302063
16.00 323.368256
16.01 324.904266
16.02 322.701416
16.03 322.579712
16.04 329.479767
16.05 325.636444
16.06 323.599518
16.07 325.70636
16.08 327.219391
16.09 331.603516
16.10 330.955139
16.11 333.060944
16.12 334.86377
16.13 340.02475
16.14 340.638763
16.15 331.201263
16.16 327.373108
16.17 331.733124
16.18 333.778595
16.19 333.588074
16.20 337.885895
16.21 340.547363
16.22 337.697174
16.23 330.188446
16.24 340.844025
16.25 342.727203
16.26 331.557037
16.27 320.904022
16.28 316.376343
16.29 321.125275
16.30 333.191711
16.31 340.877563
16.32 345.143585
16.33 343.709778
16.34 335.736328
16.35 337.973816
16.36 333.622467
16.37 325.063477
16.38 326.410889
16.39 333.767181
16.40 335.227264
16.41 331.236053
16.42 327.747589
16.43 330.305328
16.44 336.667908
16.45 339.920288
16.46 340.715088
16.47 343.983887
16.48 341.613892
16.49 336.806702
16.50 338.003448
16.51 340.365204
16.52 335.665222
16.53 330.089233
16.54 334.560425
16.55 335.704956
16.56 340.723511
16.57 347.666779
16.58 350.122528
16.59 347.782227
16.60 345.514465
16.61 340.732391
16.62 330.627197
16.63 327.608582
16.64 330.228363
16.65 337.094818
16.66 340.599487
16.67 339.150726
16.68 338.939911
16.69 336.053589
16.70 337.353882
16.71 342.683014
16.72 352.668274
16.73 352.791351
16.74 352.556183
16.75 350.137512
16.76 342.523804
16.77 338.110992
16.78 334.908417
16.79 336.046448
16.80 335.846832
16.81 334.756744
16.82 336.781525
16.83 336.064545
16.84 341.155609
16.85 351.228943
16.86 352.751495
16.87 350.987823
16.88 352.982971
16.89 350.498474
16.90 343.835327
16.91 343.483948
16.92 344.654388
16.93 348.914215
16.94 348.560333
16.95 350.348267
16.96 352.716583
16.97 356.896759
16.98 360.983582
16.99 364.515869
17.00 362.711578
17.01 360.512817
17.02 359.309448
17.03 358.776154
17.04 357.680939
17.05 353.837067
17.06 350.857758
17.07 350.367737
17.08 356.220184
17.09 360.474731
17.10 356.820801
17.11 349.646851
17.12 351.927368
17.13 364.113159
17.14 369.469177
17.15 362.522064
17.16 359.615234
17.17 358.751465
17.18 359.436401
17.19 357.837708
17.20 359.759918
17.21 364.967224
17.22 356.013702
17.23 357.80719
17.24 363.561646
17.25 370.819427
17.26 376.783997
17.27 376.695374
17.28 373.081848
17.29 364.292664
17.30 361.437439
17.31 366.565674
17.32 366.703613
17.33 366.00885
17.34 365.930939
17.35 361.47229
17.36 359.224701
17.37 365.376312
17.38 365.479553
17.39 359.527283
17.40 353.498566
17.41 349.929688
17.42 358.101318
17.43 365.960999
17.44 368.929382
17.45 372.432465
17.46 370.840118
17.47 376.357361
17.48 377.745728
17.49 368.79129
17.50 368.699005
17.51 369.257538
17.52 367.977203
17.53 370.816315
17.54 374.02356
17.55 377.920166
17.56 374.783905
17.57 360.526947
17.58 354.414551
17.59 357.372284
17.60 361.255035
17.61 367.403442
17.62 374.782776
17.63 382.528229
17.64 378.954193
17.65 372.158081
17.66 371.108368
17.67 368.859009
17.68 367.012146
17.69 372.118469
17.70 375.46814
17.71 379.924774
17.72 375.408051
17.73 361.805328
17.74 356.403656
17.75 362.323029
17.76 364.926208
17.77 373.35965
17.78 381.498138
17.79 383.061462
17.80 377.600525
17.81 370.382782
17.82 374.098602
17.83 375.136566
17.84 373.886292
17.85 375.516693
17.86 375.108002
17.87 371.99646
17.88 373.184204
17.89 376.882324
17.90 374.844238
17.91 378.131744
17.92 382.846649
17.93 379.14267
17.94 380.066071
17.95 385.60141
17.96 387.303925
17.97 386.556427
17.98 387.227539
17.99 388.698547
18.00 386.82843
18.01 385.899994
18.02 383.282806
18.03 379.014557
18.04 382.707733
18.05 392.588501
18.06 396.462769
18.07 400.631165
18.08 399.402405
18.09 395.659088
18.10 396.519684
18.11 398.737152
18.12 396.570953
18.13 394.250244
18.14 394.080322
18.15 389.110443
18.16 384.738739
18.17 380.61731
18.18 383.541229
18.19 382.822083
18.20 381.109772
18.21 393.268555
18.22 395.240356
18.23 387.431213
18.24 378.142761
18.25 377.908356
18.26 387.057861
18.27 395.828583
18.28 404.97403
18.29 407.047241
18.30 399.221069
18.31 395.179291
18.32 386.843323
18.33 387.707001
18.34 392.709564
18.35 387.581024
18.36 395.107452
18.37 402.472534
18.38 404.163696
18.39 406.466827
18.40 404.05368
18.41 406.306122
18.42 407.229034
18.43 405.894867
18.44 397.453705
18.45 391.859283
18.46 393.592651
18.47 402.237366
18.48 416.48938
18.49 419.475952
18.50 412.651886
18.51 409.490112
18.52 404.483063
18.53 398.373932
18.54 405.337341
18.55 410.516479
18.56 418.91983
18.57 426.082001
18.58 426.421936
18.59 422.169281
18.60 417.279327
18.61 410.934174
18.62 410.002716
18.63 410.961578
18.64 414.099518
18.65 410.658295
18.66 407.161926
18.67 408.975677
18.68 403.54248
18.69 402.001892
18.70 406.206512
18.71 411.810547
18.72 421.128632
18.73 421.867767
18.74 423.878326
18.75 422.405609
18.76 416.445465
18.77 412.004425
18.78 413.164093
18.79 419.170441
18.80 424.24295
18.81 423.4841
18.82 420.916565
18.83 418.804993
18.84 417.077087
18.85 415.504974
18.86 420.995544
18.87 428.394867
18.88 431.468842
18.89 431.469635
18.90 430.973022
18.91 423.748108
18.92 418.485626
18.93 416.855194
18.94 424.474579
18.95 432.362488
18.96 431.006256
18.97 420.087555
18.98 417.965088
18.99 422.42691
19.00 422.800201
19.01 427.868011
19.02 424.957886
19.03 422.856384
19.04 428.541321
19.05 430.136078
19.06 431.716705
19.07 438.77829
19.08 437.995331
19.09 433.032532
19.10 430.445129
19.11 426.66864
19.12 426.036621
19.13 428.75943
19.14 435.750824
19.15 437.445496
19.16 437.284424
19.17 440.603546
19.18 440.551422
19.19 437.412598
19.20 437.981384
19.21 441.205505
19.22 449.463501
19.23 449.385437
19.24 448.163147
19.25 443.009552
19.26 430.043671
19.27 432.419464
19.28 439.65918
19.29 441.532867
19.30 440.384491
19.31 440.992279
19.32 443.253387
19.33 444.690552
19.34 441.372437
19.35 444.104187
19.36 448.426788
19.37 444.872162
19.38 441.127045
19.39 437.738892
19.40 441.676605
19.41 450.335846
19.42 446.562195
19.43 443.5271
19.44 440.837555
19.45 439.829285
19.46 441.257263
19.47 448.146423
19.48 451.166626
19.49 445.598389
19.50 445.192505
19.51 441.163544
19.52 436.419373
19.53 438.667023
19.54 444.111755
19.55 455.44577
19.56 458.770905
19.57 458.312988
19.58 462.141235
19.59 461.275482
19.60 462.287842
19.61 455.402435
19.62 444.783264
19.63 446.368011
19.64 452.177307
19.65 456.653412
19.66 462.020203
19.67 466.230011
19.68 463.529816
19.69 461.80304
19.70 460.637817
19.71 461.941986
19.72 464.571106
19.73 465.525909
19.74 464.57724
19.75 462.056335
19.76 459.911682
19.77 461.473846
19.78 460.671265
19.79 461.578827
19.80 466.133423
19.81 459.955505
19.82 454.059418
19.83 455.528107
19.84 461.697205
19.85 467.849304
19.86 478.623962
19.87 483.578735
19.88 476.952118
19.89 472.134033
19.90 476.580963
19.91 476.529816
19.92 476.361298
19.93 479.170166
19.94 476.879974
19.95 474.424805
19.96 471.648224
19.97 466.169098
19.98 464.380157
19.99 467.757141
20.00 476.197693
20.01 476.7099
20.02 476.344849
20.03 481.216522
20.04 480.644714
20.05 471.911285
20.06 473.755157
20.07 478.271637
20.08 476.98999
20.09 476.709229
20.10 472.371765
20.11 473.277435
20.12 477.91983
20.13 476.998749
20.14 472.774536
20.15 473.440094
20.16 476.662109
20.17 479.389099
20.18 480.629517
20.19 482.89447
20.20 486.619415
20.21 491.619965
20.22 494.075256
20.23 490.334503
20.24 481.651947
20.25 479.58017
20.26 489.424164
20.27 495.69342
20.28 496.01413
20.29 491.80246
20.30 493.186127
20.31 492.735565
20.32 489.026764
20.33 493.844482
20.34 498.363708
20.35 500.344269
20.36 506.161713
20.37 504.194489
20.38 494.781586
20.39 492.861725
20.40 496.370087
20.41 503.873718
20.42 497.0065
20.43 486.440002
20.44 476.1297
20.45 476.300995
20.46 487.787903
20.47 499.057465
20.48 508.828888
20.49 511.118805
20.50 504.282471
20.51 494.479004
20.52 496.754089
20.53 502.906006
20.54 515.439636
20.55 519.528564
20.56 506.267578
20.57 494.312988
20.58 487.519928
20.59 486.868011
20.60 489.216827
20.61 486.710846
20.62 491.025635
20.63 496.144623
20.64 501.877472
20.65 509.603546
20.66 516.464111
20.67 518.03949
20.68 512.828064
20.69 510.767578
20.70 510.742523
20.71 509.504578
20.72 507.507935
20.73 508.664246
20.74 513.76947
20.75 520.293762
20.76 523.947754
20.77 530.738403
20.78 527.650635
20.79 516.026611
20.80 516.633606
20.81 520.831482
20.82 519.922058
20.83 520.396301
20.84 518.451233
20.85 511.454559
20.86 509.95575
20.87 520.404907
20.88 517.185852
20.89 511.686676
