!@!!GADDS PLOTSO FILE: Chi integration type
!@!!Title/SampleName: ML_MAPbX3
!@!!User: NREL
!@!!Site: NREL SERF C211; SN 2510
!@!!Frame: 081022_MLProject_000_012.gfrm
!@!!Wavelengths    1.54184   1.54056   1.54439
!@!!Frame angles: 2Theta: 28.000 Omega: 5.000 Phi: 0.000 Chi: 90.000
!@!!Integration range: 2Theta: 10.000 to 41.100  Gamma: -120.400 to -60.400
!@!!Integration method: bin normalized
!@!N
!@!SS
!@!M
!@!L 0.0 0.0 0.0 0.0
!@!XDegrees
!@!YCounts
10.00 241.608658
10.01 240.424683
10.02 236.199661
10.03 236.113602
10.04 238.708008
10.05 237.986191
10.06 235.380051
10.07 234.311966
10.08 235.511597
10.09 230.674789
10.10 225.184372
10.11 231.295319
10.12 231.833908
10.13 240.558365
10.14 249.410522
10.15 240.313309
10.16 233.79808
10.17 231.921631
10.18 229.827225
10.19 230.961609
10.20 236.03064
10.21 239.200287
10.22 230.89856
10.23 221.47467
10.24 226.934982
10.25 230.439407
10.26 228.145767
10.27 229.880219
10.28 228.426132
10.29 237.448517
10.30 234.864548
10.31 226.508011
10.32 235.869476
10.33 240.233246
10.34 239.09494
10.35 240.450348
10.36 238.15271
10.37 234.511108
10.38 235.24292
10.39 237.786453
10.40 238.388702
10.41 237.804352
10.42 243.112915
10.43 243.284988
10.44 240.963943
10.45 243.876175
10.46 240.907639
10.47 239.567932
10.48 246.08577
10.49 252.357162
10.50 254.916183
10.51 250.766724
10.52 241.759644
10.53 237.852081
10.54 239.71701
10.55 250.2565
10.56 255.659805
10.57 249.697968
10.58 248.731583
10.59 248.208527
10.60 243.621292
10.61 237.258957
10.62 233.657364
10.63 242.242813
10.64 242.498795
10.65 236.425034
10.66 237.31218
10.67 236.50264
10.68 244.089447
10.69 248.802246
10.70 247.815155
10.71 252.409515
10.72 250.890366
10.73 246.668259
10.74 248.106903
10.75 241.459244
10.76 234.973434
10.77 234.802872
10.78 230.554962
10.79 232.538879
10.80 232.600906
10.81 235.854568
10.82 240.979004
10.83 244.898209
10.84 251.158249
10.85 250.248367
10.86 251.436295
10.87 259.52359
10.88 263.739166
10.89 266.735046
10.90 257.235931
10.91 248.799866
10.92 252.315323
10.93 249.962524
10.94 245.969925
10.95 243.226974
10.96 244.538544
10.97 254.725418
10.98 259.736908
10.99 253.616104
11.00 246.744431
11.01 240.898987
11.02 243.371918
11.03 248.017899
11.04 250.312454
11.05 256.931854
11.06 250.652542
11.07 238.197052
11.08 242.736465
11.09 250.040985
11.10 251.954178
11.11 247.492294
11.12 251.338852
11.13 258.595001
11.14 257.695557
11.15 254.589081
11.16 261.22345
11.17 262.195221
11.18 256.47702
11.19 254.28096
11.20 251.909332
11.21 243.94342
11.22 245.163773
11.23 247.833633
11.24 248.878754
11.25 255.982941
11.26 252.09462
11.27 249.952408
11.28 252.099106
11.29 253.302917
11.30 254.168243
11.31 251.96608
11.32 251.488861
11.33 251.130508
11.34 247.484955
11.35 248.642258
11.36 251.756439
11.37 255.281097
11.38 255.195175
11.39 246.248978
11.40 247.516586
11.41 251.009247
11.42 255.863235
11.43 262.383881
11.44 260.861725
11.45 257.681396
11.46 263.085358
11.47 260.255859
11.48 257.068146
11.49 267.055664
11.50 270.561707
11.51 266.441162
11.52 260.033539
11.53 252.768784
11.54 255.548767
11.55 252.075226
11.56 251.527573
11.57 262.343018
11.58 266.597198
11.59 263.838409
11.60 261.706848
11.61 261.966888
11.62 261.689148
11.63 260.157745
11.64 260.635651
11.65 254.360199
11.66 254.611725
11.67 263.7724
11.68 258.4953
11.69 253.74118
11.70 253.75946
11.71 256.212006
11.72 265.316193
11.73 265.945129
11.74 268.69281
11.75 274.840576
11.76 273.308075
11.77 273.316254
11.78 274.215088
11.79 272.904755
11.80 270.032715
11.81 268.931763
11.82 262.995453
11.83 252.699432
11.84 251.867813
11.85 258.556885
11.86 262.25177
11.87 262.232574
11.88 261.371765
11.89 260.818604
11.90 259.994171
11.91 258.888275
11.92 261.978882
11.93 270.806946
11.94 270.33194
11.95 266.055573
11.96 262.186981
11.97 261.230621
11.98 267.012787
11.99 272.35025
12.00 277.344116
12.01 273.862671
12.02 269.179016
12.03 267.831573
12.04 266.121582
12.05 265.138062
12.06 265.890289
12.07 272.220978
12.08 271.545502
12.09 266.46701
12.10 271.552826
12.11 277.442261
12.12 277.033234
12.13 278.695282
12.14 281.841827
12.15 278.88559
12.16 274.980286
12.17 272.111176
12.18 273.243988
12.19 278.407074
12.20 280.429535
12.21 277.994934
12.22 278.999908
12.23 279.640015
12.24 279.127136
12.25 282.086151
12.26 283.770386
12.27 293.8508
12.28 294.305389
12.29 293.176453
12.30 294.942596
12.31 290.165253
12.32 290.150665
12.33 290.730774
12.34 286.099152
12.35 281.305969
12.36 282.259796
12.37 284.632263
12.38 283.961304
12.39 290.47168
12.40 295.889435
12.41 291.338684
12.42 297.437195
12.43 300.455627
12.44 297.425751
12.45 299.464417
12.46 295.653961
12.47 298.009247
12.48 306.788513
12.49 312.26181
12.50 319.183655
12.51 317.212524
12.52 307.279297
12.53 307.837677
12.54 311.417816
12.55 318.476685
12.56 321.481689
12.57 324.38739
12.58 323.460876
12.59 310.177429
12.60 301.781921
12.61 303.777069
12.62 313.479614
12.63 316.524048
12.64 317.049042
12.65 317.050598
12.66 322.910645
12.67 321.630646
12.68 316.965271
12.69 314.476196
12.70 313.474213
12.71 315.008698
12.72 306.776978
12.73 299.668884
12.74 301.406158
12.75 296.965515
12.76 289.608795
12.77 297.746246
12.78 298.532776
12.79 303.811218
12.80 305.368317
12.81 294.510468
12.82 301.738831
12.83 308.296906
12.84 299.152069
12.85 296.556824
12.86 297.963715
12.87 298.108307
12.88 296.305817
12.89 292.180023
12.90 294.391479
12.91 295.999451
12.92 297.923981
12.93 296.025879
12.94 291.399048
12.95 292.55011
12.96 295.708099
12.97 301.399445
12.98 301.355652
12.99 297.852509
13.00 297.884857
13.01 296.33548
13.02 301.344299
13.03 308.263947
13.04 301.374146
13.05 294.554901
13.06 289.649475
13.07 288.765625
13.08 294.188843
13.09 296.766266
13.10 292.809357
13.11 291.641968
13.12 287.051971
13.13 284.147644
13.14 291.641602
13.15 290.44397
13.16 290.857147
13.17 292.773193
13.18 295.135925
13.19 298.141327
13.20 291.410034
13.21 287.456451
13.22 298.251099
13.23 305.136047
13.24 303.612152
13.25 298.718872
13.26 305.313812
13.27 317.516113
13.28 321.987
13.29 314.60199
13.30 313.645264
13.31 321.354828
13.32 320.343048
13.33 314.135223
13.34 313.274658
13.35 308.698944
13.36 304.795593
13.37 317.337738
13.38 328.08078
13.39 325.557922
13.40 326.827423
13.41 329.207062
13.42 330.442719
13.43 331.040131
13.44 329.83783
13.45 329.600739
13.46 325.532471
13.47 324.212158
13.48 324.282196
13.49 328.226288
13.50 337.987885
13.51 335.016754
13.52 334.434113
13.53 343.106842
13.54 349.86908
13.55 350.999756
13.56 357.994934
13.57 364.846161
13.58 370.631104
13.59 372.347076
13.60 374.523926
13.61 372.164581
13.62 368.502838
13.63 373.964478
13.64 378.095947
13.65 378.595245
13.66 383.018829
13.67 398.551971
13.68 406.185059
13.69 409.427246
13.70 417.056
13.71 419.678192
13.72 422.420471
13.73 427.349884
13.74 420.739319
13.75 435.235657
13.76 454.803009
13.77 465.169708
13.78 478.628998
13.79 495.928162
13.80 499.657043
13.81 484.108459
13.82 480.932831
13.83 496.639496
13.84 503.437836
13.85 507.628967
13.86 505.14624
13.87 508.284485
13.88 515.939453
13.89 525.449951
13.90 552.824524
13.91 558.671692
13.92 560.677734
13.93 566.052734
13.94 567.004639
13.95 569.836731
13.96 584.420471
13.97 599.211548
13.98 610.991821
13.99 615.755005
14.00 620.227478
14.01 613.445923
14.02 602.519836
14.03 604.132996
14.04 615.664185
14.05 614.560913
14.06 614.241272
14.07 628.845886
14.08 628.945679
14.09 605.93811
14.10 588.379456
14.11 582.037659
14.12 591.064331
14.13 591.427246
14.14 585.379761
14.15 579.215881
14.16 569.872559
14.17 557.124023
14.18 540.096008
14.19 533.116699
14.20 526.259888
14.21 508.861115
14.22 493.23175
14.23 482.482849
14.24 476.793396
14.25 468.441803
14.26 454.206635
14.27 458.050171
14.28 445.181519
14.29 421.633423
14.30 402.149811
14.31 397.625519
14.32 390.293365
14.33 382.56662
14.34 373.089447
14.35 377.063873
14.36 374.105499
14.37 358.473022
14.38 350.623047
14.39 352.392944
14.40 353.140381
14.41 357.798767
14.42 357.581512
14.43 349.537048
14.44 349.8638
14.45 351.428741
14.46 345.909332
14.47 343.137054
14.48 355.85791
14.49 362.525879
14.50 358.04538
14.51 349.600433
14.52 340.852386
14.53 332.222626
14.54 333.859955
14.55 332.146545
14.56 324.516052
14.57 321.516327
14.58 329.206299
14.59 336.308411
14.60 326.381409
14.61 314.121979
14.62 307.955566
14.63 322.069214
14.64 333.411072
14.65 330.817169
14.66 328.719971
14.67 319.760956
14.68 323.075165
14.69 327.521332
14.70 330.702911
14.71 329.432983
14.72 324.135376
14.73 323.149628
14.74 326.426544
14.75 327.776062
14.76 322.239624
14.77 318.38324
14.78 324.178223
14.79 328.78653
14.80 328.153809
14.81 327.608063
14.82 333.120148
14.83 342.222137
14.84 349.405151
14.85 345.621887
14.86 337.162537
14.87 325.566803
14.88 319.391327
14.89 324.02475
14.90 336.390228
14.91 341.35675
14.92 343.451691
14.93 347.72052
14.94 343.735626
14.95 345.02301
14.96 352.366699
14.97 352.123077
14.98 348.209351
14.99 348.71402
15.00 344.321655
15.01 337.031982
15.02 347.643036
15.03 352.965637
15.04 356.519592
15.05 361.104248
15.06 360.685791
15.07 365.442474
15.08 369.96347
15.09 364.216156
15.10 355.859863
15.11 356.153229
15.12 366.387115
15.13 364.667175
15.14 357.930206
15.15 360.696503
15.16 372.2211
15.17 381.748749
15.18 381.65741
15.19 385.056458
15.20 390.154816
15.21 392.971039
15.22 396.288788
15.23 404.111755
15.24 407.371735
15.25 415.107941
15.26 423.06781
15.27 418.240387
15.28 412.813232
15.29 411.870209
15.30 405.337158
15.31 404.666992
15.32 417.908081
15.33 429.522217
15.34 436.349792
15.35 435.012756
15.36 431.021545
15.37 429.157623
15.38 433.374451
15.39 432.870911
15.40 447.721191
15.41 461.675079
15.42 470.114502
15.43 473.095398
15.44 466.394775
15.45 464.540863
15.46 458.299561
15.47 456.676178
15.48 460.712646
15.49 462.065338
15.50 463.20816
15.51 462.699402
15.52 464.228729
15.53 470.665619
15.54 465.977753
15.55 456.440491
15.56 454.733734
15.57 456.072784
15.58 452.850311
15.59 449.23349
15.60 443.456207
15.61 436.371521
15.62 437.455933
15.63 434.057739
15.64 430.256226
15.65 420.047668
15.66 412.172852
15.67 413.546997
15.68 407.93457
15.69 406.175385
15.70 409.673706
15.71 411.507507
15.72 405.86377
15.73 405.994324
15.74 399.49881
15.75 385.328064
15.76 380.307953
15.77 378.954834
15.78 377.525635
15.79 374.494446
15.80 381.819031
15.81 393.128906
15.82 389.354462
15.83 378.537415
15.84 375.287781
15.85 369.025421
15.86 363.860291
15.87 363.947784
15.88 363.052734
15.89 365.037048
15.90 364.504578
15.91 362.709595
15.92 359.415405
15.93 357.595184
15.94 360.199188
15.95 363.498505
15.96 366.580627
15.97 371.223572
15.98 374.230957
15.99 374.813568
16.00 366.166565
16.01 356.718201
16.02 346.899017
16.03 343.861298
16.04 342.995697
16.05 342.677643
16.06 347.413147
16.07 345.10733
16.08 344.154572
16.09 345.63504
16.10 339.17215
16.11 336.456116
16.12 335.716217
16.13 334.128448
16.14 332.810272
16.15 340.296082
16.16 346.398865
16.17 339.913788
16.18 339.194763
16.19 346.538788
16.20 347.868378
16.21 342.136841
16.22 344.921967
16.23 347.608276
16.24 348.450043
16.25 351.841522
16.26 355.085754
16.27 350.457672
16.28 343.743958
16.29 348.872467
16.30 353.986664
16.31 350.396881
16.32 349.929779
16.33 346.443665
16.34 341.518555
16.35 343.748322
16.36 347.683563
16.37 347.432587
16.38 344.043884
16.39 341.641998
16.40 342.853699
16.41 338.313019
16.42 344.633087
16.43 356.966339
16.44 357.691132
16.45 355.33786
16.46 353.086914
16.47 345.921143
16.48 336.361664
16.49 335.525726
16.50 340.573608
16.51 334.309387
16.52 340.726532
16.53 357.943726
16.54 358.492828
16.55 352.977875
16.56 348.152618
16.57 348.150116
16.58 360.80603
16.59 365.638367
16.60 357.24649
16.61 350.429901
16.62 348.169464
16.63 343.703705
16.64 352.078857
16.65 362.12323
16.66 355.763702
16.67 351.539032
16.68 353.029846
16.69 356.67749
16.70 360.848602
16.71 361.789185
16.72 361.371094
16.73 360.17511
16.74 365.047333
16.75 369.214539
16.76 367.806976
16.77 360.945801
16.78 356.443756
16.79 353.705109
16.80 352.227295
16.81 353.135681
16.82 353.110077
16.83 347.086121
16.84 352.642883
16.85 366.319794
16.86 371.681854
16.87 371.159912
16.88 371.513763
16.89 369.022888
16.90 359.783875
16.91 358.578583
16.92 360.071106
16.93 358.236725
16.94 360.028503
16.95 358.966675
16.96 356.562561
16.97 357.605072
16.98 356.43869
16.99 349.286377
17.00 350.387573
17.01 365.97522
17.02 373.474945
17.03 370.008331
17.04 363.031281
17.05 362.559357
17.06 360.842529
17.07 362.469299
17.08 373.261536
17.09 371.353241
17.10 365.036591
17.11 365.320068
17.12 361.452789
17.13 359.546295
17.14 365.026733
17.15 372.108582
17.16 372.746796
17.17 376.843201
17.18 375.429718
17.19 368.593475
17.20 363.693268
17.21 362.609161
17.22 368.667023
17.23 375.316895
17.24 366.453827
17.25 359.713989
17.26 367.295532
17.27 364.240204
17.28 363.102081
17.29 363.544647
17.30 359.672668
17.31 359.187286
17.32 366.770264
17.33 371.842255
17.34 370.019226
17.35 365.973602
17.36 368.850677
17.37 370.051758
17.38 367.363037
17.39 363.264313
17.40 360.195862
17.41 370.948181
17.42 377.788879
17.43 380.085052
17.44 380.629333
17.45 373.968262
17.46 374.993622
17.47 380.963257
17.48 373.653168
17.49 369.565094
17.50 370.445557
17.51 380.783905
17.52 388.361389
17.53 383.886017
17.54 376.162933
17.55 372.97406
17.56 372.663239
17.57 364.993286
17.58 362.611481
17.59 366.963409
17.60 366.469971
17.61 365.583466
17.62 369.772888
17.63 372.704529
17.64 372.934998
17.65 369.920929
17.66 368.706451
17.67 372.804413
17.68 378.54718
17.69 377.039795
17.70 388.779205
17.71 394.200348
17.72 383.977356
17.73 373.87442
17.74 376.663239
17.75 381.165009
17.76 382.723053
17.77 385.692963
17.78 389.787384
17.79 393.753815
17.80 396.510406
17.81 399.923767
17.82 399.439423
17.83 394.387512
17.84 391.033386
17.85 391.585144
17.86 391.969879
17.87 391.915344
17.88 392.107391
17.89 386.173218
17.90 380.577118
17.91 378.489777
17.92 375.597382
17.93 380.810699
17.94 386.658905
17.95 390.764832
17.96 395.399231
17.97 401.221252
17.98 402.814728
17.99 395.591125
18.00 397.263306
18.01 405.330536
18.02 408.320068
18.03 405.668488
18.04 398.180908
18.05 401.325714
18.06 406.99353
18.07 410.981445
18.08 410.953827
18.09 405.886353
18.10 395.799164
18.11 387.432068
18.12 389.182098
18.13 389.847076
18.14 394.687439
18.15 398.812531
18.16 398.775269
18.17 395.950531
18.18 397.890747
18.19 402.592133
18.20 403.338074
18.21 404.150909
18.22 407.992676
18.23 400.631714
18.24 394.145355
18.25 404.9646
18.26 412.018616
18.27 412.642609
18.28 415.418365
18.29 409.681213
18.30 408.528351
18.31 408.596832
18.32 408.448181
18.33 415.927246
18.34 420.617157
18.35 415.325745
18.36 407.891693
18.37 404.059265
18.38 401.411804
18.39 397.364136
18.40 396.818542
18.41 393.401886
18.42 399.628082
18.43 404.272034
18.44 395.594147
18.45 399.55011
18.46 411.617859
18.47 412.280609
18.48 413.475128
18.49 420.331818
18.50 422.699585
18.51 415.177338
18.52 415.589325
18.53 418.724945
18.54 421.934418
18.55 426.550842
18.56 419.904663
18.57 407.891479
18.58 406.492249
18.59 411.099182
18.60 416.961212
18.61 420.538635
18.62 418.766418
18.63 419.636444
18.64 424.46228
18.65 426.590698
18.66 422.613037
18.67 415.82373
18.68 418.14566
18.69 425.237274
18.70 426.375
18.71 425.313232
18.72 423.139771
18.73 420.310852
18.74 422.356018
18.75 420.072662
18.76 419.027313
18.77 419.660339
18.78 423.658325
18.79 428.261017
18.80 424.279053
18.81 432.638489
18.82 443.150024
18.83 441.098633
18.84 439.675262
18.85 441.807404
18.86 433.697723
18.87 427.449402
18.88 426.590698
18.89 430.990967
18.90 436.688141
18.91 428.134888
18.92 431.370178
18.93 437.533051
18.94 430.800568
18.95 429.138031
18.96 436.608612
18.97 441.633331
18.98 440.131653
18.99 432.988037
19.00 430.115753
19.01 434.440155
19.02 435.156525
19.03 433.735474
19.04 437.140228
19.05 440.018738
19.06 430.513092
19.07 429.968109
19.08 440.053589
19.09 440.962311
19.10 431.243103
19.11 432.753815
19.12 438.703918
19.13 440.29068
19.14 448.3172
19.15 455.458801
19.16 459.396301
19.17 457.554077
19.18 448.267151
19.19 446.593201
19.20 452.022461
19.21 449.825378
19.22 445.901581
19.23 444.247009
19.24 444.610596
19.25 448.175476
19.26 448.055023
19.27 450.921143
19.28 448.339966
19.29 449.255249
19.30 444.103882
19.31 442.177429
19.32 444.760986
19.33 443.302612
19.34 441.386627
19.35 441.985321
19.36 446.60907
19.37 448.24231
19.38 449.121918
19.39 449.743988
19.40 443.855499
19.41 442.51297
19.42 447.848846
19.43 449.494476
19.44 444.157013
19.45 443.106537
19.46 450.999664
19.47 459.006104
19.48 453.369415
19.49 452.646576
19.50 456.185913
19.51 458.71106
19.52 461.474823
19.53 463.382141
19.54 462.739899
19.55 466.320679
19.56 471.831543
19.57 471.81076
19.58 470.008698
19.59 468.996307
19.60 470.024109
19.61 474.025452
19.62 469.198578
19.63 465.018433
19.64 470.938629
19.65 480.360657
19.66 477.20224
19.67 464.448364
19.68 461.108673
19.69 465.397583
19.70 472.615753
19.71 473.95578
19.72 478.502319
19.73 477.055328
19.74 476.096649
19.75 477.024597
19.76 471.913483
19.77 478.467834
19.78 479.452667
19.79 478.839478
19.80 481.80072
19.81 475.899811
19.82 472.508209
19.83 472.124695
19.84 474.338715
19.85 487.094452
19.86 495.52887
19.87 490.941101
19.88 481.121948
19.89 478.919556
19.90 487.45282
19.91 490.545837
19.92 487.534454
19.93 486.906006
19.94 497.529297
19.95 508.480682
19.96 503.191895
19.97 492.671997
19.98 492.93045
19.99 493.869934
20.00 492.261475
20.01 487.113251
20.02 481.627258
20.03 483.529144
20.04 490.050964
20.05 491.987976
20.06 491.648041
20.07 489.282379
20.08 487.062561
20.09 489.470734
20.10 496.539215
20.11 503.317566
20.12 506.979797
20.13 504.367645
20.14 499.517181
20.15 494.501648
20.16 492.938568
20.17 494.532837
20.18 491.417084
20.19 493.706604
20.20 496.338074
20.21 493.535217
20.22 493.44397
20.23 498.407166
20.24 501.215942
20.25 502.65799
20.26 496.730896
20.27 499.547668
20.28 499.456482
20.29 501.130829
20.30 503.378235
20.31 497.115936
20.32 497.164337
20.33 494.91864
20.34 495.559937
20.35 502.640533
20.36 515.902039
20.37 516.357544
20.38 507.604736
20.39 512.01416
20.40 511.382904
20.41 516.371216
20.42 519.545044
20.43 506.025208
20.44 505.79306
20.45 511.588928
20.46 505.397217
20.47 502.437836
20.48 500.834564
20.49 498.693787
20.50 509.383606
20.51 520.97876
20.52 518.106262
20.53 510.469116
20.54 509.809052
20.55 508.34903
20.56 511.917755
20.57 513.242065
20.58 512.895081
20.59 513.854187
20.60 520.034973
20.61 515.729431
20.62 514.934631
20.63 520.818237
20.64 522.378296
20.65 519.274048
20.66 514.081726
20.67 511.526184
20.68 512.203308
20.69 514.189819
20.70 504.805023
20.71 504.131836
20.72 512.947449
20.73 518.050964
20.74 527.664795
20.75 528.982056
20.76 526.065674
20.77 530.430664
20.78 527.966736
20.79 529.332397
20.80 535.756714
20.81 543.52655
20.82 544.211609
20.83 544.632263
20.84 547.550903
20.85 539.858337
20.86 533.967957
20.87 539.161682
20.88 535.614563
20.89 527.984741
20.90 535.55188
