!@!!GADDS PLOTSO FILE: Chi integration type
!@!!Title/SampleName: ML_MAPbX3
!@!!User: NREL
!@!!Site: NREL SERF C211; SN 2510
!@!!Frame: 081022_MLProject_000_017.gfrm
!@!!Wavelengths    1.54184   1.54056   1.54439
!@!!Frame angles: 2Theta: 28.000 Omega: 5.000 Phi: 0.000 Chi: 90.000
!@!!Integration range: 2Theta: 10.000 to 41.100  Gamma: -120.400 to -60.400
!@!!Integration method: bin normalized
!@!N
!@!SS
!@!M
!@!L 0.0 0.0 0.0 0.0
!@!XDegrees
!@!YCounts
10.00 200.501633
10.01 207.562027
10.02 201.738251
10.03 196.117569
10.04 197.727905
10.05 199.468307
10.06 197.014542
10.07 197.222717
10.08 189.465057
10.09 186.32695
10.10 198.681183
10.11 204.90123
10.12 198.027267
10.13 194.279541
10.14 190.142014
10.15 192.385788
10.16 200.271698
10.17 199.904678
10.18 198.286835
10.19 202.095123
10.20 198.269028
10.21 198.257599
10.22 201.544312
10.23 196.447861
10.24 197.626083
10.25 198.526566
10.26 194.442261
10.27 201.081223
10.28 208.636795
10.29 210.496048
10.30 214.524094
10.31 213.785187
10.32 209.129898
10.33 197.97731
10.34 196.950867
10.35 204.423813
10.36 204.927322
10.37 201.840744
10.38 196.369934
10.39 197.445374
10.40 203.995514
10.41 209.927536
10.42 211.940277
10.43 208.016464
10.44 200.582092
10.45 203.788467
10.46 207.130402
10.47 206.873703
10.48 208.621033
10.49 216.812271
10.50 219.750153
10.51 205.757599
10.52 192.456161
10.53 195.125
10.54 197.358185
10.55 196.955551
10.56 199.773666
10.57 202.435379
10.58 207.843567
10.59 210.045532
10.60 212.659561
10.61 215.373932
10.62 209.75441
10.63 213.745148
10.64 218.138565
10.65 216.264694
10.66 209.843704
10.67 208.375885
10.68 213.403641
10.69 216.503159
10.70 219.785568
10.71 219.173386
10.72 214.363586
10.73 207.835617
10.74 207.259109
10.75 207.031677
10.76 203.932037
10.77 203.482513
10.78 203.907654
10.79 205.671753
10.80 212.433014
10.81 217.918442
10.82 214.428833
10.83 209.411835
10.84 206.669891
10.85 211.536911
10.86 221.646774
10.87 227.988892
10.88 230.389359
10.89 228.903397
10.90 224.312347
10.91 216.46582
10.92 215.240189
10.93 216.233582
10.94 213.231766
10.95 208.207932
10.96 202.060226
10.97 210.563568
10.98 212.050446
10.99 207.230789
11.00 209.261078
11.01 216.258636
11.02 223.361862
11.03 224.636169
11.04 222.152817
11.05 221.481339
11.06 221.23616
11.07 217.139145
11.08 225.615387
11.09 237.994537
11.10 236.714508
11.11 233.148041
11.12 232.124588
11.13 225.200134
11.14 224.264908
11.15 230.453873
11.16 227.964706
11.17 230.130371
11.18 230.757584
11.19 225.928619
11.20 217.740433
11.21 215.073334
11.22 224.168991
11.23 227.311935
11.24 219.220032
11.25 216.87439
11.26 215.614777
11.27 216.800797
11.28 229.623459
11.29 237.47171
11.30 239.055222
11.31 238.145187
11.32 240.189514
11.33 227.314392
11.34 216.280884
11.35 227.952042
11.36 228.737396
11.37 224.184921
11.38 229.380188
11.39 228.192734
11.40 228.918945
11.41 230.430344
11.42 225.545959
11.43 221.885574
11.44 227.857193
11.45 230.179169
11.46 238.056152
11.47 242.843094
11.48 243.132217
11.49 246.342194
11.50 236.598236
11.51 233.536102
11.52 232.349152
11.53 221.213699
11.54 220.32048
11.55 228.369812
11.56 228.777954
11.57 225.329697
11.58 221.561539
11.59 224.613083
11.60 233.055908
11.61 237.254562
11.62 236.727829
11.63 238.511017
11.64 237.920639
11.65 235.083725
11.66 236.800278
11.67 242.670013
11.68 243.69397
11.69 245.880707
11.70 246.100174
11.71 244.357498
11.72 248.561203
11.73 253.296371
11.74 248.305298
11.75 249.079391
11.76 255.128036
11.77 252.311935
11.78 248.690857
11.79 247.255997
11.80 253.168411
11.81 260.689301
11.82 261.844788
11.83 258.510254
11.84 251.750565
11.85 249.319229
11.86 254.989975
11.87 255.969604
11.88 252.736664
11.89 250.637787
11.90 250.240295
11.91 259.613708
11.92 273.015167
11.93 275.458893
11.94 269.562592
11.95 269.880768
11.96 280.714417
11.97 279.6763
11.98 275.340179
11.99 274.841797
12.00 280.901062
12.01 288.226135
12.02 296.777954
12.03 304.171448
12.04 304.819305
12.05 302.785858
12.06 304.905518
12.07 302.349609
12.08 294.469055
12.09 295.903687
12.10 304.885437
12.11 310.487885
12.12 311.696808
12.13 320.324921
12.14 333.556366
12.15 335.481689
12.16 335.55011
12.17 332.373199
12.18 325.084808
12.19 320.236115
12.20 320.059387
12.21 329.164642
12.22 345.647095
12.23 366.103638
12.24 375.527313
12.25 384.624054
12.26 387.120239
12.27 386.980103
12.28 384.76001
12.29 390.708008
12.30 398.275146
12.31 403.665161
12.32 413.340332
12.33 424.705414
12.34 441.086975
12.35 463.572571
12.36 467.682404
12.37 476.338074
12.38 488.733002
12.39 498.538818
12.40 503.355316
12.41 512.203857
12.42 521.85022
12.43 535.346741
12.44 552.064209
12.45 558.223572
12.46 565.443298
12.47 580.326538
12.48 607.668701
12.49 623.888916
12.50 641.660278
12.51 649.349792
12.52 642.185425
12.53 649.935486
12.54 661.334778
12.55 665.806152
12.56 686.218506
12.57 696.357178
12.58 707.919739
12.59 709.773499
12.60 694.728271
12.61 683.5672
12.62 677.73999
12.63 672.778931
12.64 658.487305
12.65 645.285034
12.66 643.942383
12.67 645.144226
12.68 635.004517
12.69 616.666809
12.70 597.544373
12.71 583.143738
12.72 572.616089
12.73 547.229553
12.74 537.039917
12.75 536.720154
12.76 529.355591
12.77 504.07309
12.78 491.543152
12.79 478.313202
12.80 470.000397
12.81 454.376923
12.82 443.426788
12.83 429.275604
12.84 422.859863
12.85 413.045288
12.86 401.842865
12.87 387.238525
12.88 384.80481
12.89 376.154297
12.90 365.398102
12.91 356.506104
12.92 344.477295
12.93 325.882813
12.94 314.26416
12.95 312.513428
12.96 306.832092
12.97 300.748657
12.98 300.713013
12.99 310.084656
13.00 311.184265
13.01 309.035828
13.02 310.203796
13.03 300.291473
13.04 293.82782
13.05 300.664948
13.06 300.364014
13.07 303.416656
13.08 293.841827
13.09 279.566345
13.10 280.06369
13.11 286.872681
13.12 291.734863
13.13 291.313507
13.14 293.870148
13.15 295.160797
13.16 286.380157
13.17 279.465118
13.18 284.096802
13.19 285.698151
13.20 282.203796
13.21 282.041687
13.22 284.173096
13.23 287.106598
13.24 284.995026
13.25 285.631683
13.26 292.057343
13.27 296.424805
13.28 283.857391
13.29 274.951477
13.30 280.269623
13.31 282.505829
13.32 284.504913
13.33 284.143219
13.34 279.593262
13.35 275.36911
13.36 280.423096
13.37 279.562683
13.38 278.446747
13.39 279.344025
13.40 276.66803
13.41 277.673035
13.42 278.874359
13.43 276.100525
13.44 272.602203
13.45 269.726563
13.46 269.102783
13.47 276.242126
13.48 279.542694
13.49 279.958649
13.50 272.290222
13.51 271.817108
13.52 285.689728
13.53 292.381348
13.54 290.416107
13.55 283.9151
13.56 281.677155
13.57 286.085236
13.58 290.791443
13.59 292.37738
13.60 294.422577
13.61 287.784576
13.62 284.074554
13.63 287.693726
13.64 294.330017
13.65 296.259644
13.66 294.704132
13.67 289.403625
13.68 289.762268
13.69 297.23465
13.70 295.392639
13.71 303.596802
13.72 308.6185
13.73 306.2901
13.74 308.084167
13.75 312.531006
13.76 310.995697
13.77 303.424683
13.78 299.078125
13.79 300.453644
13.80 303.213715
13.81 308.065216
13.82 315.108704
13.83 320.47821
13.84 322.773468
13.85 326.862762
13.86 330.128418
13.87 331.03009
13.88 333.262451
13.89 334.132477
13.90 332.306793
13.91 334.41037
13.92 337.925995
13.93 336.577606
13.94 338.499512
13.95 341.938385
13.96 345.212311
13.97 347.432892
13.98 349.467804
13.99 354.930542
14.00 365.618805
14.01 376.04422
14.02 371.024872
14.03 371.176239
14.04 387.512512
14.05 386.349976
14.06 382.993256
14.07 391.086426
14.08 393.844208
14.09 396.020966
14.10 400.043549
14.11 408.841644
14.12 416.619476
14.13 419.232971
14.14 432.553314
14.15 447.075073
14.16 451.021271
14.17 465.114471
14.18 461.336639
14.19 451.316772
14.20 446.793396
14.21 458.020081
14.22 485.443604
14.23 504.523315
14.24 516.538818
14.25 522.105957
14.26 528.340149
14.27 534.163574
14.28 537.358582
14.29 531.82428
14.30 531.793884
14.31 529.903015
14.32 535.020386
14.33 543.599731
14.34 547.957397
14.35 559.124268
14.36 558.7276
14.37 558.260986
14.38 564.837524
14.39 556.267639
14.40 551.027771
14.41 532.799805
14.42 519.181213
14.43 520.096802
14.44 514.872253
14.45 509.750397
14.46 516.09845
14.47 512.837341
14.48 495.914978
14.49 478.532379
14.50 485.695007
14.51 483.941803
14.52 472.686249
14.53 469.28241
14.54 453.789978
14.55 427.740692
14.56 423.706909
14.57 429.179016
14.58 422.767303
14.59 417.470154
14.60 420.216217
14.61 418.234833
14.62 411.554138
14.63 411.95697
14.64 412.220795
14.65 405.794678
14.66 401.964294
14.67 397.549316
14.68 393.129028
14.69 393.493195
14.70 390.405609
14.71 396.30304
14.72 400.184967
14.73 395.063599
14.74 399.197601
14.75 401.127838
14.76 392.024261
14.77 396.875702
14.78 412.701874
14.79 416.151825
14.80 404.673737
14.81 401.366394
14.82 410.604248
14.83 409.49765
14.84 415.065094
14.85 426.057068
14.86 434.384766
14.87 440.584198
14.88 439.662201
14.89 437.062195
14.90 437.225342
14.91 441.785461
14.92 446.469208
14.93 454.473907
14.94 461.149658
14.95 472.905731
14.96 479.255463
14.97 484.519684
14.98 492.764618
14.99 495.673676
15.00 502.054504
15.01 500.038391
15.02 502.294159
15.03 505.842651
15.04 518.738098
15.05 526.350525
15.06 541.05365
15.07 557.833618
15.08 563.777954
15.09 574.81958
15.10 580.129272
15.11 581.802734
15.12 585.821045
15.13 586.809021
15.14 589.520264
15.15 604.083191
15.16 611.132446
15.17 609.324768
15.18 613.41333
15.19 621.439453
15.20 629.525696
15.21 639.736389
15.22 632.175354
15.23 626.181702
15.24 631.187805
15.25 634.450317
15.26 634.719727
15.27 629.441467
15.28 616.153748
15.29 604.544067
15.30 604.823547
15.31 604.162842
15.32 589.836121
15.33 581.177246
15.34 563.218689
15.35 553.389221
15.36 544.106628
15.37 542.112
15.38 544.258789
15.39 542.529907
15.40 530.549561
15.41 517.894043
15.42 494.767212
15.43 468.510284
15.44 468.612946
15.45 463.390045
15.46 456.871155
15.47 454.568787
15.48 436.525299
15.49 414.440063
15.50 409.307648
15.51 394.135345
15.52 394.041107
15.53 398.983917
15.54 392.366425
15.55 385.264526
15.56 379.336029
15.57 372.530182
15.58 373.358429
15.59 372.472473
15.60 365.595886
15.61 359.526062
15.62 353.515442
15.63 358.490082
15.64 354.184418
15.65 348.072449
15.66 348.622711
15.67 346.7164
15.68 346.640503
15.69 347.009247
15.70 345.881104
15.71 338.970886
15.72 338.368164
15.73 341.479156
15.74 340.215546
15.75 335.65625
15.76 333.891113
15.77 340.44339
15.78 337.134369
15.79 329.098083
15.80 331.984589
15.81 336.122742
15.82 331.698822
15.83 328.10556
15.84 329.98761
15.85 328.02652
15.86 322.934479
15.87 328.336151
15.88 331.816406
15.89 333.279266
15.90 333.213104
15.91 331.497833
15.92 331.636963
15.93 332.141357
15.94 332.866882
15.95 333.789978
15.96 336.017517
15.97 337.830322
15.98 330.64151
15.99 328.786591
16.00 334.34137
16.01 332.029388
16.02 324.363129
16.03 321.86264
16.04 326.784363
16.05 325.646729
16.06 323.828857
16.07 323.002502
16.08 322.0354
16.09 327.819061
16.10 332.693939
16.11 329.898254
16.12 323.414917
16.13 319.713226
16.14 320.037476
16.15 325.48056
16.16 323.955261
16.17 315.182739
16.18 315.671967
16.19 328.049683
16.20 340.240356
16.21 342.806
16.22 336.883636
16.23 323.024567
16.24 322.544434
16.25 328.188934
16.26 329.463715
16.27 333.762726
16.28 337.846313
16.29 331.433716
16.30 330.670685
16.31 338.523499
16.32 339.956268
16.33 332.931183
16.34 332.014862
16.35 334.417755
16.36 325.387848
16.37 326.031769
16.38 326.539459
16.39 319.45224
16.40 321.397827
16.41 319.235016
16.42 328.042542
16.43 340.700104
16.44 340.888763
16.45 335.521851
16.46 332.234924
16.47 329.577148
16.48 325.453186
16.49 327.8797
16.50 328.084534
16.51 328.437836
16.52 331.606506
16.53 327.209259
16.54 323.880493
16.55 328.622345
16.56 337.608307
16.57 344.514099
16.58 340.333191
16.59 338.505859
16.60 336.974121
16.61 332.528168
16.62 331.42627
16.63 330.902863
16.64 333.84491
16.65 339.93515
16.66 351.20871
16.67 355.164185
16.68 344.157898
16.69 332.030609
16.70 326.11618
16.71 327.394409
16.72 333.465332
16.73 345.443909
16.74 350.306885
16.75 350.081024
16.76 352.717438
16.77 340.627014
16.78 330.092896
16.79 339.238312
16.80 347.955139
16.81 342.789154
16.82 331.110474
16.83 333.210144
16.84 344.866791
16.85 354.082245
16.86 351.916809
16.87 338.922363
16.88 332.961121
16.89 338.574951
16.90 339.787048
16.91 338.282715
16.92 344.074829
16.93 347.347931
16.94 339.992157
16.95 337.196106
16.96 340.80542
16.97 346.158478
16.98 348.498627
16.99 352.349487
17.00 343.952698
17.01 345.637909
17.02 352.970673
17.03 359.201996
17.04 356.539917
17.05 348.338104
17.06 347.143341
17.07 347.509369
17.08 351.434296
17.09 351.811737
17.10 353.48407
17.11 359.787933
17.12 358.026245
17.13 356.626312
17.14 362.562927
17.15 360.230011
17.16 350.492645
17.17 349.151428
17.18 343.091949
17.19 341.412384
17.20 354.260559
17.21 358.451599
17.22 356.301392
17.23 344.893646
17.24 335.746918
17.25 344.188507
17.26 349.346313
17.27 352.03241
17.28 357.953491
17.29 361.697815
17.30 362.712402
17.31 369.859711
17.32 377.06311
17.33 370.012421
17.34 360.149017
17.35 363.096802
17.36 363.890015
17.37 357.72583
17.38 353.47229
17.39 349.920929
17.40 353.690765
17.41 360.468506
17.42 362.717377
17.43 354.173676
17.44 354.38028
17.45 361.80304
17.46 368.674896
17.47 367.04071
17.48 367.518311
17.49 370.223358
17.50 368.011841
17.51 375.323395
17.52 376.457886
17.53 361.767853
17.54 361.136993
17.55 369.447388
17.56 363.650696
17.57 358.515045
17.58 363.080597
17.59 358.644745
17.60 354.980225
17.61 358.237335
17.62 357.861603
17.63 356.306793
17.64 362.972198
17.65 374.320496
17.66 373.793976
17.67 375.518219
17.68 377.882324
17.69 377.631256
17.70 379.307037
17.71 383.178497
17.72 381.001831
17.73 379.196198
17.74 385.929413
17.75 384.880127
17.76 388.695374
17.77 382.596039
17.78 373.423096
17.79 378.996979
17.80 381.720459
17.81 379.531586
17.82 383.300964
17.83 380.688232
17.84 368.131104
17.85 360.055695
17.86 375.017303
17.87 387.875488
17.88 382.611084
17.89 376.946045
17.90 374.606354
17.91 380.042725
17.92 387.291962
17.93 387.52536
17.94 382.348206
17.95 375.396942
17.96 372.727203
17.97 368.976074
17.98 368.300415
17.99 373.355927
18.00 377.148804
18.01 379.918701
18.02 383.117279
18.03 382.551971
18.04 378.323517
18.05 382.32016
18.06 384.254089
18.07 381.896362
18.08 381.528809
18.09 380.679626
18.10 381.630554
18.11 380.403778
18.12 382.3302
18.13 384.593384
18.14 379.683197
18.15 377.765778
18.16 379.619171
18.17 380.644623
18.18 380.043518
18.19 384.615723
18.20 380.661987
18.21 380.025909
18.22 384.431274
18.23 385.193298
18.24 383.779694
18.25 389.205078
18.26 390.408569
18.27 391.066498
18.28 393.999481
18.29 402.27301
18.30 397.509277
18.31 386.819519
18.32 379.997559
18.33 380.497833
18.34 385.933014
18.35 389.524048
18.36 394.137695
18.37 398.128082
18.38 393.736908
18.39 391.892303
18.40 397.659698
18.41 405.481995
18.42 413.942932
18.43 408.706055
18.44 402.46225
18.45 405.587341
18.46 398.27652
18.47 404.186371
18.48 414.597839
18.49 410.829163
18.50 410.207886
18.51 400.154907
18.52 391.245331
18.53 392.954071
18.54 391.174835
18.55 391.455048
18.56 389.214844
18.57 386.584625
18.58 393.052551
18.59 395.93161
18.60 392.260773
18.61 395.723206
18.62 403.451691
18.63 406.446808
18.64 403.023926
18.65 396.897522
18.66 395.552887
18.67 396.51709
18.68 405.731903
18.69 412.858093
18.70 411.509186
18.71 404.638153
18.72 400.08725
18.73 391.175171
18.74 387.262115
18.75 397.64505
18.76 402.174072
18.77 404.165741
18.78 405.880371
18.79 401.939819
18.80 398.217957
18.81 405.927094
18.82 411.132141
18.83 414.079559
18.84 414.263153
18.85 411.423035
18.86 415.867828
18.87 420.131683
18.88 417.063843
18.89 413.971161
18.90 415.00592
18.91 416.5242
18.92 417.508453
18.93 413.184906
18.94 414.75293
18.95 411.904724
18.96 411.917908
18.97 426.32547
18.98 434.908447
18.99 430.758026
19.00 427.292389
19.01 428.521179
19.02 427.723785
19.03 420.383728
19.04 421.621521
19.05 421.147278
19.06 416.42395
19.07 414.933472
19.08 417.121124
19.09 418.350098
19.10 421.970856
19.11 427.919739
19.12 430.888641
19.13 434.127502
19.14 428.923279
19.15 422.687225
19.16 420.808502
19.17 423.600311
19.18 429.015656
19.19 428.335144
19.20 431.827759
19.21 429.952637
19.22 425.459137
19.23 427.219696
19.24 431.949951
19.25 437.617828
19.26 436.721649
19.27 435.673157
19.28 444.387726
19.29 442.806
19.30 433.015778
19.31 436.706512
19.32 442.774628
19.33 442.962067
19.34 443.991516
19.35 454.571869
19.36 453.566803
19.37 444.864685
19.38 444.942047
19.39 444.216522
19.40 437.568237
19.41 435.736389
19.42 442.903351
19.43 437.298309
19.44 440.559326
19.45 445.578003
19.46 440.617065
19.47 440.158997
19.48 447.045258
19.49 455.264069
19.50 453.24295
19.51 451.248657
19.52 451.558838
19.53 453.37262
19.54 457.012726
19.55 454.67038
19.56 445.43866
19.57 446.488586
19.58 448.803192
19.59 448.578857
19.60 451.813385
19.61 449.596863
19.62 447.404236
19.63 448.582794
19.64 451.058014
19.65 453.959686
19.66 457.233185
19.67 460.844788
19.68 450.979309
19.69 439.31366
19.70 444.74585
19.71 446.506134
19.72 448.519531
19.73 446.052612
19.74 438.913818
19.75 446.341797
19.76 449.302979
19.77 449.118713
19.78 458.052155
19.79 461.543427
19.80 463.040466
19.81 463.766327
19.82 466.697296
19.83 469.586395
19.84 471.209869
19.85 475.348877
19.86 469.550629
19.87 464.340881
19.88 462.71109
19.89 455.495361
19.90 451.699493
19.91 460.749695
19.92 468.921265
19.93 464.665558
19.94 470.919006
19.95 475.601135
19.96 475.787201
19.97 472.700653
19.98 478.635925
19.99 471.960846
20.00 458.292328
20.01 457.190582
20.02 468.350708
20.03 477.132385
20.04 474.446289
20.05 471.29361
20.06 471.375214
20.07 468.077606
20.08 469.165375
20.09 471.008362
20.10 472.323578
20.11 472.317383
20.12 473.629944
20.13 474.857056
20.14 475.083038
20.15 479.805389
20.16 481.896973
20.17 482.696533
20.18 485.837677
20.19 482.496796
20.20 482.763489
20.21 491.403656
20.22 499.5383
20.23 497.184326
20.24 492.876068
20.25 491.996368
20.26 494.445221
20.27 496.729553
20.28 503.69635
20.29 502.125336
20.30 495.991455
20.31 493.506195
20.32 493.32135
20.33 490.452698
20.34 489.287231
20.35 484.451233
20.36 477.043365
20.37 480.517181
20.38 484.972473
20.39 486.907745
20.40 490.194489
20.41 496.119751
20.42 496.469269
20.43 497.462097
20.44 500.887512
20.45 499.188446
20.46 488.534088
20.47 477.336029
20.48 479.184021
20.49 486.687256
20.50 490.668427
20.51 492.004822
20.52 499.03598
20.53 513.104431
20.54 510.74292
20.55 499.807434
20.56 500.239014
20.57 501.563019
20.58 501.641998
20.59 503.49408
20.60 502.996338
20.61 498.834442
20.62 497.314056
20.63 495.999359
20.64 493.320801
20.65 492.022827
20.66 495.885254
20.67 495.111267
20.68 500.496582
20.69 508.775177
20.70 510.297791
20.71 511.658447
20.72 514.583069
20.73 512.062073
20.74 508.280396
20.75 506.514801
20.76 503.853973
20.77 500.119781
20.78 509.651703
20.79 523.514465
20.80 529.332458
20.81 517.15863
20.82 506.036865
20.83 508.14978
20.84 509.403992
20.85 504.354156
20.86 505.820679
20.87 511.573273
20.88 523.881836
20.89 521.634521
20.90 518.06427
