!@!!GADDS PLOTSO FILE: Chi integration type
!@!!Title/SampleName: ML_MAPbX3
!@!!User: NREL
!@!!Site: NREL SERF C211; SN 2510
!@!!Frame: 081022_MLProject_000_014.gfrm
!@!!Wavelengths    1.54184   1.54056   1.54439
!@!!Frame angles: 2Theta: 28.000 Omega: 5.000 Phi: 0.000 Chi: 90.000
!@!!Integration range: 2Theta: 10.000 to 41.100  Gamma: -120.400 to -60.400
!@!!Integration method: bin normalized
!@!N
!@!SS
!@!M
!@!L 0.0 0.0 0.0 0.0
!@!XDegrees
!@!YCounts
10.00 243.885712
10.01 242.674622
10.02 229.909576
10.03 222.28566
10.04 217.739426
10.05 224.291351
10.06 241.292877
10.07 248.059067
10.08 242.090591
10.09 233.476456
10.10 232.933456
10.11 228.476425
10.12 218.584351
10.13 223.056412
10.14 224.79213
10.15 222.269257
10.16 224.602158
10.17 222.885834
10.18 221.663666
10.19 222.028778
10.20 224.381775
10.21 235.316879
10.22 239.67691
10.23 234.960739
10.24 232.154617
10.25 237.851974
10.26 247.111206
10.27 244.32254
10.28 237.639832
10.29 243.132217
10.30 239.852066
10.31 234.276337
10.32 232.83522
10.33 228.616211
10.34 223.595444
10.35 225.011978
10.36 218.680252
10.37 209.84021
10.38 215.431015
10.39 223.208664
10.40 221.742783
10.41 227.636124
10.42 231.838165
10.43 223.281662
10.44 229.009705
10.45 240.332794
10.46 244.686676
10.47 243.947083
10.48 244.498596
10.49 249.687881
10.50 240.002426
10.51 231.745346
10.52 237.141571
10.53 246.825958
10.54 253.046967
10.55 248.404739
10.56 236.568954
10.57 227.5327
10.58 231.079346
10.59 237.20195
10.60 229.179398
10.61 227.749985
10.62 244.137039
10.63 254.352142
10.64 257.326385
10.65 255.277908
10.66 256.089355
10.67 251.621033
10.68 248.685013
10.69 255.687958
10.70 247.04892
10.71 234.994202
10.72 237.267975
10.73 242.880417
10.74 240.075531
10.75 234.085068
10.76 233.527481
10.77 236.522476
10.78 234.845154
10.79 243.054337
10.80 251.62178
10.81 244.92598
10.82 243.967468
10.83 237.625565
10.84 233.316727
10.85 239.43071
10.86 240.013412
10.87 240.56987
10.88 239.652161
10.89 237.8022
10.90 250.437744
10.91 255.698837
10.92 243.958847
10.93 239.4384
10.94 237.039581
10.95 240.48735
10.96 244.878418
10.97 245.350388
10.98 247.727371
10.99 250.94838
11.00 247.470657
11.01 249.393951
11.02 254.888794
11.03 252.449203
11.04 248.787628
11.05 248.029175
11.06 249.054657
11.07 245.610321
11.08 238.727814
11.09 240.415161
11.10 244.595978
11.11 248.295853
11.12 254.774963
11.13 249.662308
11.14 242.344269
11.15 240.007339
11.16 239.402084
11.17 242.212814
11.18 247.956207
11.19 250.490707
11.20 253.763565
11.21 250.713852
11.22 246.02417
11.23 246.968704
11.24 253.533127
11.25 260.539185
11.26 254.104782
11.27 252.597183
11.28 249.270844
11.29 248.642792
11.30 256.438202
11.31 256.845062
11.32 254.675079
11.33 246.524124
11.34 250.956207
11.35 261.318787
11.36 263.265991
11.37 268.668884
11.38 261.546936
11.39 253.621231
11.40 251.930984
11.41 252.571136
11.42 257.079895
11.43 255.108215
11.44 248.638428
11.45 250.931427
11.46 257.215973
11.47 258.422668
11.48 266.046875
11.49 263.772888
11.50 253.838226
11.51 260.854431
11.52 264.68219
11.53 252.274841
11.54 243.994797
11.55 249.365036
11.56 259.451508
11.57 261.60434
11.58 259.033752
11.59 253.981964
11.60 255.553345
11.61 261.095856
11.62 265.859863
11.63 273.165253
11.64 271.779297
11.65 273.308228
11.66 270.668488
11.67 264.630127
11.68 260.331268
11.69 259.229736
11.70 256.843292
11.71 265.213287
11.72 267.278076
11.73 262.421112
11.74 266.588165
11.75 274.242828
11.76 274.418915
11.77 269.967712
11.78 265.813812
11.79 265.211731
11.80 265.465973
11.81 270.185577
11.82 266.6409
11.83 259.573517
11.84 255.05423
11.85 251.820648
11.86 254.845779
11.87 260.222656
11.88 263.663788
11.89 263.682159
11.90 270.808502
11.91 275.349121
11.92 280.278259
11.93 281.32428
11.94 274.690308
11.95 276.210327
11.96 281.099854
11.97 269.625
11.98 258.234741
11.99 263.012329
12.00 269.712769
12.01 265.298737
12.02 264.630402
12.03 268.844147
12.04 262.390137
12.05 258.713593
12.06 270.939117
12.07 279.145447
12.08 279.763062
12.09 287.273438
12.10 291.84668
12.11 286.85968
12.12 287.955811
12.13 291.66748
12.14 290.166565
12.15 286.180206
12.16 281.473785
12.17 288.463013
12.18 291.364746
12.19 279.859009
12.20 274.637024
12.21 282.754181
12.22 287.647858
12.23 294.927429
12.24 291.598572
12.25 287.299316
12.26 295.952423
12.27 289.509827
12.28 285.907135
12.29 296.332642
12.30 297.735291
12.31 290.961731
12.32 289.40448
12.33 298.291565
12.34 300.326782
12.35 304.106903
12.36 306.509369
12.37 302.098663
12.38 301.635803
12.39 315.702606
12.40 324.370453
12.41 313.494995
12.42 316.032867
12.43 320.298187
12.44 318.239227
12.45 322.33017
12.46 319.040344
12.47 315.44104
12.48 316.803436
12.49 309.945282
12.50 309.698975
12.51 307.901459
12.52 307.350555
12.53 314.722473
12.54 312.712891
12.55 320.119934
12.56 329.567291
12.57 331.577515
12.58 335.870483
12.59 333.080048
12.60 327.498291
12.61 321.007996
12.62 312.113068
12.63 311.289886
12.64 323.18515
12.65 338.137329
12.66 336.385559
12.67 330.704315
12.68 322.089233
12.69 323.960388
12.70 338.920959
12.71 345.749115
12.72 337.664032
12.73 324.641541
12.74 327.312927
12.75 321.28186
12.76 309.138397
12.77 306.176849
12.78 303.770416
12.79 306.947968
12.80 316.552795
12.81 321.477203
12.82 321.452545
12.83 327.228455
12.84 323.063629
12.85 314.904572
12.86 304.865234
12.87 298.315948
12.88 302.562561
12.89 304.306854
12.90 302.89093
12.91 297.69693
12.92 293.819092
12.93 290.804993
12.94 286.950836
12.95 288.905884
12.96 290.060028
12.97 289.106079
12.98 290.48114
12.99 291.72467
13.00 296.007843
13.01 292.83606
13.02 277.941071
13.03 273.380341
13.04 277.770081
13.05 285.957001
13.06 288.722931
13.07 277.99939
13.08 275.166595
13.09 284.224335
13.10 288.108368
13.11 290.034119
13.12 295.083954
13.13 294.747375
13.14 294.682465
13.15 292.97168
13.16 286.458649
13.17 276.494354
13.18 274.61731
13.19 278.070892
13.20 283.982849
13.21 287.311981
13.22 284.754242
13.23 283.342834
13.24 291.010101
13.25 284.341461
13.26 275.204987
13.27 275.262482
13.28 274.09668
13.29 279.392853
13.30 287.661285
13.31 295.163788
13.32 294.51593
13.33 288.962616
13.34 291.243256
13.35 295.969452
13.36 294.127563
13.37 290.06485
13.38 286.421417
13.39 288.269867
13.40 297.52713
13.41 306.438416
13.42 303.743835
13.43 299.978668
13.44 299.464661
13.45 297.728851
13.46 295.359985
13.47 284.59375
13.48 283.90741
13.49 284.943695
13.50 289.804382
13.51 303.187378
13.52 300.371765
13.53 291.608582
13.54 291.890747
13.55 285.988403
13.56 283.585663
13.57 300.1409
13.58 307.736328
13.59 303.422485
13.60 305.642395
13.61 301.137421
13.62 295.88031
13.63 297.132141
13.64 299.542023
13.65 298.60379
13.66 304.903717
13.67 311.7453
13.68 307.71228
13.69 309.546814
13.70 312.589783
13.71 312.961884
13.72 316.102814
13.73 312.293976
13.74 309.701813
13.75 314.222107
13.76 318.588837
13.77 319.112946
13.78 316.176453
13.79 320.424316
13.80 327.769684
13.81 333.367706
13.82 335.191986
13.83 335.02771
13.84 335.174835
13.85 334.089783
13.86 326.128143
13.87 327.684235
13.88 340.076141
13.89 347.001892
13.90 356.596527
13.91 356.311554
13.92 345.087708
13.93 344.949615
13.94 351.64563
13.95 354.350647
13.96 354.765869
13.97 358.937042
13.98 365.466827
13.99 370.88446
14.00 372.956604
14.01 378.60202
14.02 381.978424
14.03 383.930908
14.04 385.747192
14.05 395.022705
14.06 396.377777
14.07 402.957123
14.08 409.208344
14.09 398.857697
14.10 389.961884
14.11 397.752258
14.12 408.504578
14.13 407.639923
14.14 413.312653
14.15 419.920563
14.16 421.689575
14.17 430.513855
14.18 435.347321
14.19 439.54071
14.20 436.950104
14.21 439.068512
14.22 447.182678
14.23 443.113617
14.24 434.106079
14.25 430.422974
14.26 425.545166
14.27 419.366089
14.28 427.897644
14.29 436.689514
14.30 436.408386
14.31 431.055115
14.32 427.849335
14.33 422.625641
14.34 417.742523
14.35 419.688171
14.36 422.361542
14.37 424.760193
14.38 424.445801
14.39 405.859497
14.40 391.942841
14.41 389.360992
14.42 387.123383
14.43 394.970734
14.44 393.92926
14.45 382.983551
14.46 381.233521
14.47 383.515503
14.48 381.732513
14.49 368.679932
14.50 366.086487
14.51 371.456665
14.52 373.131775
14.53 367.35083
14.54 359.259277
14.55 362.361237
14.56 363.250214
14.57 360.638214
14.58 360.683533
14.59 359.88089
14.60 358.952728
14.61 353.202637
14.62 344.191254
14.63 348.148651
14.64 351.984039
14.65 346.622864
14.66 345.309906
14.67 344.3396
14.68 347.092499
14.69 350.857483
14.70 358.584045
14.71 361.05545
14.72 356.004761
14.73 358.778107
14.74 358.68399
14.75 359.136444
14.76 359.321381
14.77 356.010193
14.78 366.767883
14.79 379.623413
14.80 378.395477
14.81 374.020294
14.82 380.594238
14.83 385.716949
14.84 383.05603
14.85 381.12207
14.86 387.444733
14.87 395.924347
14.88 399.845642
14.89 397.15976
14.90 395.881683
14.91 394.131134
14.92 392.831909
14.93 400.420013
14.94 408.010193
14.95 410.050446
14.96 414.536316
14.97 414.962646
14.98 414.300232
14.99 426.131134
15.00 441.660248
15.01 439.950592
15.02 438.564972
15.03 442.948425
15.04 450.540192
15.05 452.553741
15.06 454.676392
15.07 467.995544
15.08 483.258636
15.09 487.321747
15.10 489.130402
15.11 495.260773
15.12 502.63559
15.13 511.707428
15.14 509.066223
15.15 507.381073
15.16 511.271759
15.17 525.755066
15.18 532.569275
15.19 522.325317
15.20 519.808289
15.21 531.356873
15.22 536.922729
15.23 537.271606
15.24 536.03479
15.25 538.057129
15.26 542.775818
15.27 550.318665
15.28 546.64032
15.29 539.807129
15.30 540.085266
15.31 550.771912
15.32 554.226868
15.33 549.828552
15.34 546.088806
15.35 538.140259
15.36 530.419617
15.37 520.327637
15.38 508.458344
15.39 513.170288
15.40 509.704285
15.41 501.202332
15.42 498.963074
15.43 495.101196
15.44 488.942169
15.45 475.047211
15.46 462.560272
15.47 458.29538
15.48 451.637756
15.49 439.003479
15.50 436.279999
15.51 437.116486
15.52 431.997345
15.53 419.072906
15.54 406.303436
15.55 404.73703
15.56 403.249695
15.57 393.301178
15.58 382.807556
15.59 375.600769
15.60 369.901093
15.61 364.353729
15.62 373.178802
15.63 376.267273
15.64 366.165619
15.65 363.099976
15.66 359.1409
15.67 355.896606
15.68 357.926788
15.69 356.07312
15.70 351.360352
15.71 346.973267
15.72 352.755646
15.73 362.246307
15.74 355.215424
15.75 352.106689
15.76 353.241608
15.77 344.905548
15.78 340.817291
15.79 344.263519
15.80 348.639709
15.81 351.673737
15.82 348.781616
15.83 340.941803
15.84 336.645477
15.85 337.208954
15.86 337.852325
15.87 341.33429
15.88 345.7258
15.89 347.594086
15.90 350.337097
15.91 346.429047
15.92 342.504608
15.93 342.928802
15.94 345.484802
15.95 346.252472
15.96 341.233521
15.97 342.739655
15.98 339.310425
15.99 328.159454
16.00 327.365082
16.01 338.067505
16.02 339.115479
16.03 340.177551
16.04 341.660187
16.05 344.254211
16.06 348.194427
16.07 348.921906
16.08 345.60376
16.09 342.057709
16.10 346.401428
16.11 344.731506
16.12 343.835449
16.13 337.035889
16.14 332.208282
16.15 337.621246
16.16 336.04425
16.17 333.340729
16.18 337.86618
16.19 340.843445
16.20 340.026855
16.21 335.779297
16.22 329.213318
16.23 337.583008
16.24 347.91391
16.25 347.574615
16.26 346.259918
16.27 338.479431
16.28 343.446533
16.29 348.882751
16.30 345.276703
16.31 348.031799
16.32 350.321899
16.33 353.697266
16.34 346.607422
16.35 336.920502
16.36 333.843872
16.37 337.707581
16.38 347.83963
16.39 355.496887
16.40 351.517151
16.41 345.536987
16.42 346.992004
16.43 347.465576
16.44 346.629425
16.45 346.002014
16.46 338.862244
16.47 334.571869
16.48 339.990112
16.49 345.644012
16.50 346.048096
16.51 348.024109
16.52 348.028412
16.53 341.816071
16.54 332.779175
16.55 328.656281
16.56 330.573578
16.57 332.025177
16.58 336.410461
16.59 341.721344
16.60 343.014557
16.61 335.472778
16.62 335.59729
16.63 339.757416
16.64 349.224915
16.65 359.496765
16.66 359.013977
16.67 350.06723
16.68 345.969574
16.69 348.417816
16.70 350.332336
16.71 343.685333
16.72 345.293854
16.73 350.451508
16.74 347.866302
16.75 339.752106
16.76 337.495728
16.77 349.190063
16.78 355.36557
16.79 355.124481
16.80 360.707123
16.81 362.854767
16.82 362.148163
16.83 358.718506
16.84 349.913727
16.85 352.355957
16.86 365.310242
16.87 367.629486
16.88 366.786926
16.89 371.79715
16.90 363.293091
16.91 350.399658
16.92 348.928528
16.93 354.059509
16.94 352.417603
16.95 352.007294
16.96 355.689209
16.97 353.476929
16.98 359.067078
16.99 363.692871
17.00 361.737274
17.01 365.327454
17.02 365.055115
17.03 362.615723
17.04 359.97879
17.05 364.900757
17.06 367.493805
17.07 362.102356
17.08 359.812012
17.09 360.243835
17.10 353.552856
17.11 353.387695
17.12 364.181793
17.13 361.760742
17.14 356.081451
17.15 355.35611
17.16 351.406372
17.17 356.533417
17.18 365.525238
17.19 367.473633
17.20 366.377258
17.21 366.574554
17.22 364.334076
17.23 361.172089
17.24 366.490906
17.25 372.905823
17.26 369.342133
17.27 373.314758
17.28 376.04834
17.29 366.507904
17.30 364.570709
17.31 369.148315
17.32 367.293304
17.33 364.861694
17.34 368.319031
17.35 369.724884
17.36 366.312042
17.37 367.265991
17.38 365.888031
17.39 369.068237
17.40 369.64209
17.41 363.13446
17.42 360.955994
17.43 366.860657
17.44 373.376709
17.45 377.472107
17.46 375.083496
17.47 372.026154
17.48 369.29126
17.49 368.059692
17.50 364.600708
17.51 374.0784
17.52 380.677429
17.53 367.604156
17.54 365.198273
17.55 374.75473
17.56 383.580688
17.57 386.961304
17.58 390.033508
17.59 392.205261
17.60 385.783508
17.61 381.371399
17.62 384.453888
17.63 380.789154
17.64 380.740723
17.65 381.994293
17.66 385.882172
17.67 387.087128
17.68 380.079071
17.69 378.154449
17.70 373.573029
17.71 378.691895
17.72 381.940369
17.73 380.617828
17.74 386.884705
17.75 384.5867
17.76 373.168976
17.77 375.283661
17.78 383.443665
17.79 393.200165
17.80 396.532257
17.81 394.091125
17.82 395.057312
17.83 389.722656
17.84 382.636292
17.85 375.585632
17.86 381.596069
17.87 384.58432
17.88 379.366333
17.89 384.011932
17.90 391.797058
17.91 392.276825
17.92 387.896515
17.93 383.533936
17.94 382.226501
17.95 378.939301
17.96 373.88382
17.97 380.812225
17.98 382.564453
17.99 384.706635
18.00 393.406891
18.01 398.835785
18.02 404.569031
18.03 406.783478
18.04 403.067505
18.05 396.227509
18.06 394.749603
18.07 392.197784
18.08 388.881775
18.09 385.901764
18.10 381.680023
18.11 380.255188
18.12 391.199371
18.13 402.530548
18.14 406.860474
18.15 396.624634
18.16 386.032745
18.17 395.262665
18.18 400.266235
18.19 394.238678
18.20 394.463806
18.21 397.371277
18.22 393.340363
18.23 396.434174
18.24 390.775116
18.25 391.757935
18.26 399.154297
18.27 398.17099
18.28 397.103485
18.29 396.940948
18.30 400.197693
18.31 404.061005
18.32 402.099731
18.33 403.393585
18.34 408.522156
18.35 407.821716
18.36 411.319702
18.37 413.88446
18.38 414.574524
18.39 409.386902
18.40 395.635315
18.41 398.453705
18.42 410.707947
18.43 410.258301
18.44 412.427368
18.45 410.413391
18.46 403.49231
18.47 406.489502
18.48 420.812286
18.49 430.162659
18.50 427.894928
18.51 427.781128
18.52 427.350128
18.53 420.987579
18.54 411.655487
18.55 411.395569
18.56 411.730774
18.57 413.969666
18.58 416.759094
18.59 421.917297
18.60 421.254578
18.61 419.076782
18.62 426.40802
18.63 426.585205
18.64 419.571106
18.65 415.729004
18.66 414.471252
18.67 408.480194
18.68 409.14212
18.69 416.450409
18.70 417.172882
18.71 417.689606
18.72 424.644958
18.73 428.006134
18.74 422.115143
18.75 415.791138
18.76 419.763428
18.77 421.803528
18.78 425.216492
18.79 429.104218
18.80 430.230103
18.81 427.485809
18.82 424.142761
18.83 421.423157
18.84 419.088043
18.85 418.767792
18.86 416.125671
18.87 419.444153
18.88 423.167755
18.89 428.126495
18.90 435.030701
18.91 432.720093
18.92 430.697693
18.93 428.06662
18.94 422.583374
18.95 421.175446
18.96 429.071808
18.97 441.118958
18.98 441.95697
18.99 440.527588
19.00 442.298462
19.01 437.432953
19.02 436.536804
19.03 435.936218
19.04 433.466003
19.05 433.181061
19.06 434.202728
19.07 426.538849
19.08 415.88269
19.09 425.078735
19.10 433.410919
19.11 441.539215
19.12 445.137756
19.13 436.397675
19.14 434.560638
19.15 444.481476
19.16 446.941498
19.17 441.732544
19.18 439.729675
19.19 439.048035
19.20 437.031128
19.21 438.681366
19.22 448.452423
19.23 448.617767
19.24 437.910187
19.25 438.533325
19.26 441.157928
19.27 439.914093
19.28 443.833038
19.29 446.066315
19.30 446.140167
19.31 447.740662
19.32 446.416168
19.33 443.403412
19.34 445.139465
19.35 451.253632
19.36 451.994781
19.37 448.203156
19.38 456.978851
19.39 465.634949
19.40 459.319244
19.41 453.699219
19.42 459.491943
19.43 456.967743
19.44 455.395752
19.45 459.816833
19.46 455.559418
19.47 455.271423
19.48 459.526428
19.49 454.083832
19.50 448.44397
19.51 448.823212
19.52 446.768982
19.53 449.558868
19.54 453.794312
19.55 459.696106
19.56 465.978546
19.57 461.900146
19.58 456.330139
19.59 456.241547
19.60 457.16098
19.61 457.925568
19.62 461.422272
19.63 458.586456
19.64 454.597229
19.65 458.493622
19.66 463.3255
19.67 471.48465
19.68 477.033081
19.69 472.368774
19.70 465.528595
19.71 459.704468
19.72 462.947906
19.73 466.68512
19.74 464.109711
19.75 464.216675
19.76 463.995239
19.77 466.23175
19.78 472.017731
19.79 477.106018
19.80 478.770264
19.81 478.845276
19.82 479.416901
19.83 471.504852
19.84 467.502472
19.85 468.676758
19.86 472.302979
19.87 482.033264
19.88 485.653595
19.89 486.205505
19.90 482.68631
19.91 477.719757
19.92 483.223877
19.93 487.51593
19.94 480.326538
19.95 477.328217
19.96 485.497528
19.97 495.586853
19.98 494.079346
19.99 486.444702
20.00 483.713196
20.01 476.402649
20.02 474.686188
20.03 474.150482
20.04 468.302185
20.05 475.093964
20.06 484.542847
20.07 490.45282
20.08 488.439789
20.09 487.677429
20.10 485.900452
20.11 486.56781
20.12 480.261414
20.13 481.187927
20.14 494.232483
20.15 494.151031
20.16 493.443237
20.17 504.029785
20.18 506.054932
20.19 505.70871
20.20 500.110474
20.21 490.757782
20.22 484.876282
20.23 487.983917
20.24 493.99469
20.25 493.855316
20.26 496.723999
20.27 507.512268
20.28 509.853119
20.29 503.750061
20.30 501.373657
20.31 496.264343
20.32 496.879974
20.33 502.030121
20.34 498.125
20.35 493.585449
20.36 497.758942
20.37 509.453888
20.38 512.802063
20.39 505.103729
20.40 508.66684
20.41 512.523376
20.42 515.255859
20.43 511.489319
20.44 506.031525
20.45 505.924957
20.46 508.40799
20.47 513.68103
20.48 521.596252
20.49 516.364075
20.50 510.446075
20.51 513.545898
20.52 512.375244
20.53 502.972595
20.54 496.56308
20.55 503.646393
20.56 510.596222
20.57 511.335266
20.58 508.815765
20.59 511.457245
20.60 514.035339
20.61 511.778381
20.62 510.244202
20.63 510.326294
20.64 511.285736
20.65 512.893005
20.66 510.120331
20.67 507.79599
20.68 512.236511
20.69 515.340759
20.70 516.498901
20.71 514.90918
20.72 513.930908
20.73 509.415131
20.74 502.671936
20.75 507.261505
20.76 513.523621
20.77 520.745911
20.78 526.675903
20.79 522.88562
20.80 523.160889
20.81 523.547424
20.82 526.810059
20.83 528.62854
20.84 531.919739
20.85 527.722168
20.86 517.127991
20.87 515.053162
20.88 508.491974
20.89 504.070862
20.90 507.684692
20.91 507.271149
