!@!!GADDS PLOTSO FILE: Chi integration type
!@!!Title/SampleName: ML_MAPbX3
!@!!User: NREL
!@!!Site: NREL SERF C211; SN 2510
!@!!Frame: 081022_MLProject_000_008.gfrm
!@!!Wavelengths    1.54184   1.54056   1.54439
!@!!Frame angles: 2Theta: 28.000 Omega: 5.000 Phi: 0.000 Chi: 90.000
!@!!Integration range: 2Theta: 10.000 to 41.100  Gamma: -120.400 to -60.400
!@!!Integration method: bin normalized
!@!N
!@!SS
!@!M
!@!L 0.0 0.0 0.0 0.0
!@!XDegrees
!@!YCounts
10.00 229.771103
10.01 224.574844
10.02 220.548737
10.03 224.563019
10.04 232.46907
10.05 239.305511
10.06 234.721924
10.07 230.923553
10.08 233.120422
10.09 225.944382
10.10 227.097153
10.11 232.017181
10.12 224.15799
10.13 223.654236
10.14 229.024994
10.15 234.222214
10.16 232.16626
10.17 225.035614
10.18 237.968643
10.19 241.563293
10.20 237.479355
10.21 240.902817
10.22 237.886429
10.23 229.7742
10.24 233.603943
10.25 232.438324
10.26 225.436569
10.27 223.965363
10.28 222.372665
10.29 227.578995
10.30 236.864136
10.31 239.360367
10.32 238.817215
10.33 241.978027
10.34 246.045227
10.35 242.288864
10.36 232.35054
10.37 225.559357
10.38 223.481003
10.39 227.785049
10.40 235.193573
10.41 245.349213
10.42 249.064026
10.43 245.09552
10.44 243.525375
10.45 245.68988
10.46 238.277435
10.47 234.866272
10.48 241.374054
10.49 246.892059
10.50 245.545944
10.51 234.846817
10.52 230.854416
10.53 232.36644
10.54 237.40567
10.55 247.469864
10.56 248.984543
10.57 248.25589
10.58 249.122772
10.59 247.191269
10.60 239.80275
10.61 238.636551
10.62 248.386154
10.63 256.656586
10.64 251.925522
10.65 245.084183
10.66 234.133713
10.67 230.462997
10.68 238.920532
10.69 242.195511
10.70 248.313263
10.71 249.985184
10.72 246.151764
10.73 248.312241
10.74 256.018494
10.75 253.137726
10.76 246.717606
10.77 246.709854
10.78 238.72789
10.79 228.94989
10.80 231.694962
10.81 239.883987
10.82 236.448395
10.83 230.385559
10.84 237.539719
10.85 242.503128
10.86 251.622101
10.87 263.254242
10.88 259.137207
10.89 247.145599
10.90 243.15657
10.91 250.487717
10.92 255.763672
10.93 259.592316
10.94 260.42981
10.95 252.25975
10.96 242.21524
10.97 237.132584
10.98 237.076172
10.99 235.630798
11.00 236.104538
11.01 245.780746
11.02 249.98114
11.03 253.401871
11.04 259.774048
11.05 253.890488
11.06 243.823929
11.07 242.173874
11.08 245.00174
11.09 242.564102
11.10 242.56459
11.11 245.733353
11.12 247.991058
11.13 246.645447
11.14 253.127747
11.15 265.389832
11.16 257.622437
11.17 253.966248
11.18 257.062561
11.19 253.516357
11.20 253.029617
11.21 252.966827
11.22 255.856781
11.23 258.002899
11.24 252.508972
11.25 244.468872
11.26 246.711487
11.27 253.706696
11.28 255.85997
11.29 261.018433
11.30 259.220795
11.31 255.929276
11.32 256.513062
11.33 255.846008
11.34 253.656281
11.35 252.855835
11.36 257.783936
11.37 249.665756
11.38 241.783157
11.39 246.650604
11.40 251.972321
11.41 258.426514
11.42 259.251984
11.43 255.132721
11.44 255.291809
11.45 259.415894
11.46 259.78421
11.47 255.415283
11.48 261.293701
11.49 266.502716
11.50 262.665405
11.51 255.518219
11.52 253.797501
11.53 256.414398
11.54 262.157867
11.55 270.734772
11.56 263.48288
11.57 254.359268
11.58 258.44928
11.59 257.379303
11.60 259.947144
11.61 256.288086
11.62 256.758484
11.63 269.652191
11.64 274.759979
11.65 271.470795
11.66 265.012085
11.67 268.890533
11.68 271.28302
11.69 266.323151
11.70 262.190399
11.71 266.243073
11.72 271.016052
11.73 276.729706
11.74 275.111511
11.75 271.466278
11.76 272.045227
11.77 269.505768
11.78 271.284149
11.79 273.345459
11.80 273.013794
11.81 271.883698
11.82 269.551422
11.83 273.321655
11.84 273.267914
11.85 271.600098
11.86 273.139252
11.87 274.365021
11.88 274.323212
11.89 269.044373
11.90 264.863861
11.91 277.393646
11.92 287.746857
11.93 289.010895
11.94 288.33551
11.95 280.528015
11.96 276.071747
11.97 275.791748
11.98 276.708984
11.99 282.321625
12.00 288.648834
12.01 290.314331
12.02 291.043396
12.03 290.975586
12.04 283.441864
12.05 287.093353
12.06 296.145599
12.07 293.059998
12.08 286.592285
12.09 291.15097
12.10 304.661987
12.11 310.627502
12.12 319.19165
12.13 319.100922
12.14 316.963989
12.15 318.801758
12.16 313.05658
12.17 316.490082
12.18 317.99054
12.19 320.108429
12.20 324.230896
12.21 322.682251
12.22 328.800171
12.23 336.914764
12.24 329.768433
12.25 328.234497
12.26 336.848694
12.27 343.436279
12.28 336.101257
12.29 333.407837
12.30 341.726715
12.31 348.790436
12.32 345.55545
12.33 350.09314
12.34 360.986938
12.35 367.657379
12.36 373.015381
12.37 375.784027
12.38 369.870422
12.39 375.367798
12.40 374.388428
12.41 363.263397
12.42 373.58667
12.43 384.684174
12.44 387.999817
12.45 396.742859
12.46 404.344727
12.47 414.330627
12.48 422.030792
12.49 422.238953
12.50 427.145599
12.51 418.832153
12.52 410.337128
12.53 416.004211
12.54 407.402527
12.55 401.792328
12.56 409.99353
12.57 413.509857
12.58 413.865936
12.59 416.175385
12.60 420.191071
12.61 429.503601
12.62 432.041748
12.63 426.057861
12.64 422.473145
12.65 418.503784
12.66 409.382996
12.67 405.218201
12.68 407.392334
12.69 405.369049
12.70 398.348633
12.71 388.43158
12.72 376.183807
12.73 371.74469
12.74 369.562408
12.75 369.36554
12.76 366.195679
12.77 362.367035
12.78 364.12677
12.79 356.311035
12.80 356.017853
12.81 350.946106
12.82 342.147644
12.83 342.477325
12.84 347.954254
12.85 341.072876
12.86 332.559235
12.87 329.568726
12.88 328.994049
12.89 332.132721
12.90 332.355133
12.91 330.859924
12.92 335.46521
12.93 325.98642
12.94 315.14621
12.95 305.893524
12.96 294.258209
12.97 294.045685
12.98 296.902802
12.99 303.19339
13.00 305.909729
13.01 308.893158
13.02 311.155396
13.03 306.753204
13.04 297.861969
13.05 302.794281
13.06 307.7146
13.07 303.084686
13.08 290.320343
13.09 292.777924
13.10 300.546844
13.11 300.669769
13.12 306.887756
13.13 306.653809
13.14 292.392548
13.15 280.687927
13.16 283.049164
13.17 286.428528
13.18 293.671082
13.19 301.459717
13.20 304.225128
13.21 299.828186
13.22 293.768829
13.23 294.831696
13.24 290.351929
13.25 288.96051
13.26 295.425842
13.27 294.271454
13.28 298.299377
13.29 300.837158
13.30 297.730377
13.31 297.073486
13.32 302.57605
13.33 308.583344
13.34 314.157745
13.35 319.487823
13.36 312.449585
13.37 312.660706
13.38 321.602051
13.39 315.969452
13.40 310.094116
13.41 306.789063
13.42 301.688354
13.43 295.046478
13.44 294.378723
13.45 300.12384
13.46 298.849854
13.47 292.170349
13.48 292.802734
13.49 293.894073
13.50 296.586426
13.51 301.0755
13.52 299.332458
13.53 300.902985
13.54 312.108673
13.55 314.620789
13.56 317.242828
13.57 313.741089
13.58 305.112396
13.59 308.820099
13.60 316.297424
13.61 316.158752
13.62 315.482117
13.63 315.055115
13.64 315.623199
13.65 317.520355
13.66 324.60556
13.67 336.485291
13.68 342.160522
13.69 344.193146
13.70 345.80899
13.71 346.825348
13.72 336.481506
13.73 335.408051
13.74 338.423767
13.75 341.755066
13.76 341.465942
13.77 338.96167
13.78 339.369446
13.79 340.86554
13.80 352.250763
13.81 367.389801
13.82 367.283081
13.83 357.33197
13.84 352.116241
13.85 357.30246
13.86 370.995667
13.87 373.739105
13.88 379.315796
13.89 392.806488
13.90 398.837494
13.91 397.982697
13.92 394.784058
13.93 399.849304
13.94 403.0867
13.95 404.603607
13.96 420.013184
13.97 430.923401
13.98 441.605927
13.99 443.806244
14.00 437.123352
14.01 433.426056
14.02 441.968262
14.03 453.880219
14.04 465.052216
14.05 484.238403
14.06 499.389954
14.07 514.290833
14.08 515.485474
14.09 516.30957
14.10 528.169983
14.11 540.394226
14.12 540.407959
14.13 548.529602
14.14 555.662781
14.15 578.164856
14.16 598.332153
14.17 608.219116
14.18 615.674438
14.19 617.382813
14.20 625.679016
14.21 649.563049
14.22 667.462891
14.23 675.862305
14.24 689.502563
14.25 697.999939
14.26 708.399231
14.27 723.705627
14.28 746.74823
14.29 753.128479
14.30 758.147522
14.31 767.283264
14.32 784.253845
14.33 795.181396
14.34 809.759766
14.35 823.79071
14.36 835.809448
14.37 841.246826
14.38 846.484131
14.39 853.521973
14.40 868.467102
14.41 879.776672
14.42 890.264038
14.43 898.465271
14.44 883.37439
14.45 856.786316
14.46 836.558533
14.47 826.244446
14.48 826.937195
14.49 817.078674
14.50 807.642395
14.51 805.200867
14.52 797.028625
14.53 790.217468
14.54 788.624878
14.55 770.945435
14.56 755.907715
14.57 749.30426
14.58 744.365295
14.59 723.663269
14.60 702.718201
14.61 705.41095
14.62 698.979858
14.63 690.597717
14.64 686.039429
14.65 683.062195
14.66 686.382813
14.67 674.028137
14.68 662.885742
14.69 657.932556
14.70 643.564087
14.71 637.632385
14.72 643.694946
14.73 651.503418
14.74 660.100159
14.75 673.059387
14.76 675.296082
14.77 669.484375
14.78 669.151672
14.79 664.684937
14.80 666.207764
14.81 672.503723
14.82 671.844299
14.83 675.928894
14.84 681.555908
14.85 680.450623
14.86 684.393982
14.87 713.882935
14.88 718.637512
14.89 722.771912
14.90 730.958557
14.91 714.719116
14.92 701.474121
14.93 710.133545
14.94 729.628784
14.95 735.293152
14.96 740.004395
14.97 752.696838
14.98 761.747192
14.99 765.139282
15.00 767.832153
15.01 758.451538
15.02 762.105713
15.03 774.302002
15.04 781.229797
15.05 787.671631
15.06 794.211914
15.07 804.825928
15.08 800.348816
15.09 793.907104
15.10 797.031677
15.11 802.546204
15.12 794.534668
15.13 781.955261
15.14 780.825989
15.15 768.520935
15.16 754.319153
15.17 749.835571
15.18 749.929199
15.19 735.198486
15.20 724.284302
15.21 707.579468
15.22 696.77832
15.23 685.439941
15.24 669.65387
15.25 650.086731
15.26 645.371887
15.27 633.416382
15.28 614.714233
15.29 594.645569
15.30 575.364502
15.31 572.724304
15.32 566.916565
15.33 557.181641
15.34 537.729431
15.35 519.504028
15.36 506.512115
15.37 499.088776
15.38 483.593231
15.39 475.615784
15.40 469.279083
15.41 469.030304
15.42 456.358307
15.43 436.539978
15.44 431.276001
15.45 422.13324
15.46 414.364838
15.47 417.402649
15.48 417.000397
15.49 404.724701
15.50 395.174835
15.51 387.342529
15.52 382.901245
15.53 381.015991
15.54 383.776459
15.55 383.076599
15.56 376.01535
15.57 370.782349
15.58 362.367798
15.59 356.345245
15.60 355.716827
15.61 359.18689
15.62 358.165131
15.63 362.694061
15.64 361.810089
15.65 348.131042
15.66 341.850952
15.67 341.641113
15.68 345.346008
15.69 347.630432
15.70 348.276276
15.71 355.941132
15.72 357.093414
15.73 356.211029
15.74 353.488861
15.75 343.507874
15.76 337.761688
15.77 336.145447
15.78 340.486938
15.79 344.647583
15.80 345.036957
15.81 342.659302
15.82 343.717163
15.83 350.989807
15.84 356.080292
15.85 354.881775
15.86 345.097992
15.87 350.918427
15.88 358.605743
15.89 356.010162
15.90 345.680054
15.91 336.409912
15.92 330.991516
15.93 334.415161
15.94 336.183136
15.95 339.19281
15.96 347.246185
15.97 344.369446
15.98 337.952972
15.99 337.632477
16.00 337.116302
16.01 340.232391
16.02 335.918884
16.03 334.981781
16.04 343.257233
16.05 348.00061
16.06 342.468506
16.07 335.966156
16.08 337.216064
16.09 337.263885
16.10 338.055237
16.11 340.74588
16.12 348.385498
16.13 353.762543
16.14 352.504486
16.15 357.078644
16.16 353.58551
16.17 347.138855
16.18 352.704895
16.19 351.920471
16.20 347.17984
16.21 340.62323
16.22 338.701965
16.23 338.566711
16.24 340.000763
16.25 343.985596
16.26 348.548553
16.27 351.931244
16.28 349.439392
16.29 345.646423
16.30 337.658173
16.31 335.798553
16.32 338.659668
16.33 339.904938
16.34 342.166046
16.35 348.250092
16.36 351.819916
16.37 352.549225
16.38 345.824677
16.39 342.668182
16.40 349.329559
16.41 356.640259
16.42 350.457306
16.43 342.212769
16.44 342.334778
16.45 341.76767
16.46 340.594116
16.47 348.572235
16.48 351.201263
16.49 344.906708
16.50 345.493103
16.51 347.606781
16.52 348.486389
16.53 349.926727
16.54 352.284424
16.55 349.585602
16.56 343.325409
16.57 335.659058
16.58 336.873932
16.59 348.496979
16.60 355.694885
16.61 358.639404
16.62 361.294342
16.63 358.156921
16.64 353.67807
16.65 359.682892
16.66 359.160492
16.67 354.603363
16.68 355.938599
16.69 357.883179
16.70 355.785553
16.71 350.126801
16.72 349.717133
16.73 351.54599
16.74 357.724152
16.75 362.730408
16.76 366.821411
16.77 365.552612
16.78 361.836761
16.79 357.136749
16.80 359.882599
16.81 360.652496
16.82 357.203979
16.83 350.807159
16.84 349.919434
16.85 348.382965
16.86 349.124115
16.87 350.802734
16.88 353.111542
16.89 356.434479
16.90 355.942871
16.91 353.733551
16.92 347.600433
16.93 351.952148
16.94 364.457367
16.95 368.641602
16.96 360.666962
16.97 356.053741
16.98 354.0737
16.99 353.402222
17.00 354.578705
17.01 346.045349
17.02 345.154419
17.03 352.651093
17.04 358.266022
17.05 353.448059
17.06 355.888
17.07 362.718353
17.08 358.377167
17.09 355.58136
17.10 351.856232
17.11 350.855194
17.12 356.642792
17.13 353.90152
17.14 357.410736
17.15 362.017303
17.16 353.493591
17.17 349.056946
17.18 354.929962
17.19 356.738098
17.20 360.644989
17.21 365.448914
17.22 362.14975
17.23 358.429688
17.24 357.981842
17.25 355.927063
17.26 358.890228
17.27 371.356781
17.28 370.921265
17.29 355.09845
17.30 359.170776
17.31 370.955261
17.32 369.295868
17.33 356.881104
17.34 352.539429
17.35 354.233032
17.36 358.584808
17.37 363.884735
17.38 363.120819
17.39 366.757568
17.40 371.730347
17.41 369.034637
17.42 373.978333
17.43 380.352692
17.44 375.827179
17.45 371.956573
17.46 369.053345
17.47 363.635437
17.48 362.057678
17.49 365.280212
17.50 372.634186
17.51 378.076294
17.52 372.398376
17.53 364.325684
17.54 354.67511
17.55 357.134338
17.56 359.958618
17.57 360.520752
17.58 361.693848
17.59 366.643585
17.60 374.443848
17.61 379.201477
17.62 378.947693
17.63 373.293396
17.64 361.865967
17.65 362.408722
17.66 371.974823
17.67 382.013641
17.68 391.755493
17.69 388.220032
17.70 376.416718
17.71 371.153381
17.72 371.408112
17.73 374.387177
17.74 378.08316
17.75 387.808746
17.76 396.57074
17.77 394.557495
17.78 392.31366
17.79 380.720337
17.80 372.97168
17.81 376.766388
17.82 375.738281
17.83 375.885956
17.84 381.358521
17.85 385.427521
17.86 386.288483
17.87 387.950806
17.88 394.152557
17.89 397.331757
17.90 394.061066
17.91 393.581207
17.92 393.199951
17.93 397.404358
17.94 397.104828
17.95 390.829163
17.96 393.815063
17.97 397.208038
17.98 395.442657
17.99 385.677826
18.00 382.035217
18.01 393.42923
18.02 404.107178
18.03 405.471191
18.04 396.012482
18.05 392.943604
18.06 390.522949
18.07 381.048615
18.08 378.716156
18.09 387.115112
18.10 387.72702
18.11 386.694733
18.12 386.494507
18.13 390.91095
18.14 395.230652
18.15 393.291992
18.16 387.178619
18.17 382.884857
18.18 387.109039
18.19 392.395813
18.20 396.093292
18.21 390.424316
18.22 381.605896
18.23 376.302704
18.24 378.954468
18.25 389.697662
18.26 392.582642
18.27 387.060913
18.28 392.656097
18.29 400.975677
18.30 406.864532
18.31 405.812195
18.32 403.680054
18.33 408.159637
18.34 407.871338
18.35 411.09729
18.36 410.755768
18.37 409.948669
18.38 407.83847
18.39 404.406586
18.40 405.456879
18.41 409.33493
18.42 409.583588
18.43 405.615173
18.44 401.339447
18.45 397.737061
18.46 391.146881
18.47 393.315765
18.48 401.225037
18.49 401.269897
18.50 395.804382
18.51 401.488953
18.52 413.249908
18.53 415.282715
18.54 417.355011
18.55 421.089844
18.56 412.98291
18.57 404.500458
18.58 402.017853
18.59 402.974854
18.60 404.943542
18.61 408.520935
18.62 416.450012
18.63 424.623413
18.64 424.479156
18.65 417.044983
18.66 418.674408
18.67 427.429993
18.68 433.762939
18.69 432.503845
18.70 428.987579
18.71 427.978485
18.72 436.678375
18.73 440.779266
18.74 439.631744
18.75 425.719849
18.76 412.704987
18.77 411.549164
18.78 405.444855
18.79 411.282776
18.80 419.027313
18.81 426.518799
18.82 429.079498
18.83 425.499725
18.84 427.691742
18.85 426.314056
18.86 424.488251
18.87 420.758209
18.88 418.668396
18.89 418.031586
18.90 421.783081
18.91 430.705536
18.92 435.027832
18.93 430.040344
18.94 427.086487
18.95 434.588379
18.96 438.318726
18.97 430.029541
18.98 425.446472
18.99 429.718658
19.00 433.731934
19.01 433.451874
19.02 429.181641
19.03 426.892853
19.04 428.252197
19.05 434.70401
19.06 439.66394
19.07 434.471222
19.08 427.556793
19.09 430.360535
19.10 430.614624
19.11 428.082825
19.12 426.240723
19.13 430.719482
19.14 437.197205
19.15 434.941132
19.16 433.627411
19.17 430.381104
19.18 427.529663
19.19 430.127441
19.20 432.267303
19.21 428.113251
19.22 427.845062
19.23 431.104858
19.24 432.045105
19.25 436.83252
19.26 440.336395
19.27 444.324799
19.28 452.852905
19.29 450.13443
19.30 439.550812
19.31 439.669342
19.32 443.928253
19.33 443.96933
19.34 445.82196
19.35 445.444031
19.36 450.282227
19.37 449.2276
19.38 451.071899
19.39 454.931213
19.40 456.799164
19.41 460.207947
19.42 458.469177
19.43 463.391785
19.44 465.417908
19.45 451.47879
19.46 444.518646
19.47 444.901428
19.48 444.288757
19.49 438.905609
19.50 437.168793
19.51 443.568237
19.52 446.675018
19.53 450.398621
19.54 450.36673
19.55 451.188751
19.56 453.848877
19.57 455.676117
19.58 451.996918
19.59 444.758514
19.60 447.113007
19.61 443.867828
19.62 445.513733
19.63 452.621857
19.64 452.299408
19.65 454.379791
19.66 457.541901
19.67 453.602905
19.68 459.612549
19.69 468.470551
19.70 464.808228
19.71 465.019287
19.72 467.409363
19.73 465.772766
19.74 471.158905
19.75 479.968964
19.76 482.869415
19.77 479.180115
19.78 477.717743
19.79 469.128204
19.80 459.424744
19.81 455.105774
19.82 455.876312
19.83 458.203369
19.84 467.601288
19.85 477.565796
19.86 482.337128
19.87 479.844635
19.88 474.631958
19.89 469.66745
19.90 473.233093
19.91 479.213531
19.92 480.973328
19.93 484.259338
19.94 480.725983
19.95 482.539063
19.96 484.088501
19.97 474.646973
19.98 473.546234
19.99 477.466705
20.00 483.329041
20.01 488.114471
20.02 486.836945
20.03 483.485168
20.04 478.68808
20.05 480.608978
20.06 491.316772
20.07 493.233582
20.08 491.887054
20.09 491.627472
20.10 493.055969
20.11 497.495117
20.12 504.648193
20.13 503.594635
20.14 498.104736
20.15 497.844452
20.16 494.016754
20.17 484.646301
20.18 480.579651
20.19 486.315613
20.20 494.182098
20.21 496.121765
20.22 495.794556
20.23 491.873016
20.24 494.486877
20.25 506.088135
20.26 511.608185
20.27 509.725189
20.28 504.214233
20.29 503.091339
20.30 499.394501
20.31 502.069336
20.32 517.011658
20.33 521.842346
20.34 510.894897
20.35 505.509277
20.36 509.761566
20.37 510.504486
20.38 510.748047
20.39 513.530823
20.40 503.388947
20.41 507.064117
20.42 512.553894
20.43 508.244873
20.44 507.640442
20.45 503.797791
20.46 507.265594
20.47 509.605194
20.48 508.524658
20.49 509.270844
20.50 508.992249
20.51 505.609039
20.52 510.569733
20.53 520.428284
20.54 530.083191
20.55 529.677734
20.56 525.986511
20.57 526.249268
20.58 517.80603
20.59 514.658447
20.60 511.583405
20.61 507.599304
20.62 510.193512
20.63 511.682129
20.64 515.035828
20.65 521.684998
20.66 521.823425
20.67 518.700562
20.68 521.507813
20.69 520.378906
20.70 522.158691
20.71 528.909363
20.72 530.732971
20.73 529.459656
20.74 529.543762
20.75 531.990906
20.76 538.423035
20.77 539.908264
20.78 528.87738
20.79 518.244568
20.80 518.160278
20.81 515.308594
20.82 516.459595
20.83 522.571106
20.84 530.046143
20.85 531.902466
20.86 527.411316
20.87 530.533386
20.88 530.810486
20.89 529.007874
20.90 528.973755
