!@!!GADDS PLOTSO FILE: Chi integration type
!@!!Title/SampleName: ML_MAPbX3
!@!!User: NREL
!@!!Site: NREL SERF C211; SN 2510
!@!!Frame: 081022_MLProject_000_004.gfrm
!@!!Wavelengths    1.54184   1.54056   1.54439
!@!!Frame angles: 2Theta: 28.000 Omega: 5.000 Phi: 0.000 Chi: 90.000
!@!!Integration range: 2Theta: 10.000 to 44.300  Gamma: -113.900 to -66.800
!@!!Integration method: bin normalized
!@!N
!@!SS
!@!M
!@!L 0.0 0.0 0.0 0.0
!@!XDegrees
!@!YCounts
10.00 137.111313
10.01 131.031891
10.02 124.418861
10.03 124.681549
10.04 126.218491
10.05 127.052681
10.06 124.20536
10.07 125.610664
10.08 122.122398
10.09 117.287392
10.10 121.335205
10.11 125.388496
10.12 131.655777
10.13 136.590393
10.14 134.840973
10.15 141.828369
10.16 140.793488
10.17 130.452011
10.18 131.458496
10.19 132.100082
10.20 127.571663
10.21 126.298676
10.22 119.218994
10.23 115.664597
10.24 120.170555
10.25 121.714294
10.26 120.191475
10.27 124.151459
10.28 127.718605
10.29 126.982979
10.30 128.988403
10.31 130.01564
10.32 130.543304
10.33 127.29287
10.34 126.006218
10.35 123.403793
10.36 116.365166
10.37 114.52359
10.38 112.540939
10.39 113.895279
10.40 127.709999
10.41 133.922714
10.42 129.478882
10.43 126.956001
10.44 127.097931
10.45 125.938324
10.46 120.552612
10.47 126.476677
10.48 129.876785
10.49 126.080589
10.50 127.777084
10.51 127.29863
10.52 126.091164
10.53 131.270798
10.54 134.398117
10.55 139.157364
10.56 136.653885
10.57 118.937782
10.58 121.671829
10.59 130.639648
10.60 131.803299
10.61 136.058441
10.62 136.144257
10.63 135.537491
10.64 132.645142
10.65 127.630524
10.66 137.018402
10.67 137.873718
10.68 133.185516
10.69 141.023605
10.70 147.242386
10.71 142.346146
10.72 133.627029
10.73 136.756439
10.74 140.226196
10.75 134.70546
10.76 130.304733
10.77 133.691345
10.78 134.579437
10.79 127.413422
10.80 130.414139
10.81 137.458099
10.82 133.663315
10.83 135.661163
10.84 138.650421
10.85 138.009506
10.86 144.850693
10.87 144.121887
10.88 136.281433
10.89 130.549515
10.90 132.118561
10.91 137.27858
10.92 136.506393
10.93 136.992233
10.94 143.096252
10.95 144.098404
10.96 140.621307
10.97 135.764969
10.98 132.969986
10.99 126.870316
11.00 126.417259
11.01 133.898529
11.02 140.479355
11.03 141.176132
11.04 133.047333
11.05 123.212608
11.06 120.704132
11.07 129.069641
11.08 137.181946
11.09 134.830612
11.10 137.651382
11.11 138.286682
11.12 133.886871
11.13 134.275513
11.14 132.685226
11.15 129.690567
11.16 128.814148
11.17 132.411819
11.18 138.210663
11.19 138.350006
11.20 133.640366
11.21 130.440201
11.22 132.245285
11.23 127.065598
11.24 126.513535
11.25 125.308487
11.26 123.53299
11.27 136.359222
11.28 141.161179
11.29 139.891953
11.30 138.413986
11.31 137.188507
11.32 134.894012
11.33 137.033203
11.34 140.665588
11.35 142.796906
11.36 139.120331
11.37 139.866165
11.38 147.511475
11.39 147.6138
11.40 142.204559
11.41 140.472
11.42 143.356995
11.43 143.696854
11.44 143.342346
11.45 146.033798
11.46 141.97023
11.47 139.165344
11.48 135.832336
11.49 129.301773
11.50 133.717438
11.51 142.281845
11.52 145.492447
11.53 151.633224
11.54 152.226273
11.55 147.89032
11.56 142.644806
11.57 133.352417
11.58 131.968506
11.59 129.97905
11.60 128.910858
11.61 135.061752
11.62 138.943069
11.63 141.014282
11.64 141.421341
11.65 142.352402
11.66 142.464005
11.67 139.373978
11.68 140.823227
11.69 147.554749
11.70 152.912659
11.71 151.376602
11.72 142.823441
11.73 136.856216
11.74 134.421783
11.75 132.517639
11.76 137.223633
11.77 135.94754
11.78 132.613876
11.79 136.353714
11.80 137.850616
11.81 139.946411
11.82 145.690445
11.83 147.188232
11.84 146.313736
11.85 145.148788
11.86 147.458252
11.87 154.623657
11.88 156.531143
11.89 149.638458
11.90 149.066681
11.91 149.737488
11.92 153.951782
11.93 159.287811
11.94 148.952606
11.95 137.645187
11.96 139.70047
11.97 146.039764
11.98 144.401062
11.99 146.544708
12.00 146.968811
12.01 146.55658
12.02 153.227768
12.03 157.415817
12.04 154.922684
12.05 150.829178
12.06 151.642532
12.07 147.188171
12.08 146.852539
12.09 153.63385
12.10 158.777115
12.11 156.467987
12.12 151.737
12.13 153.881241
12.14 151.553558
12.15 149.702377
12.16 153.724121
12.17 155.951263
12.18 149.439651
12.19 148.985779
12.20 158.355804
12.21 161.370743
12.22 166.488785
12.23 167.452591
12.24 164.028244
12.25 165.187012
12.26 166.383026
12.27 164.62619
12.28 165.006699
12.29 169.410583
12.30 165.513275
12.31 160.6259
12.32 159.760925
12.33 159.054062
12.34 168.296997
12.35 174.172943
12.36 170.408936
12.37 174.552048
12.38 180.677353
12.39 177.316299
12.40 172.228851
12.41 178.157211
12.42 187.209961
12.43 181.177872
12.44 174.264984
12.45 175.461609
12.46 175.518509
12.47 174.530228
12.48 167.81102
12.49 173.929153
12.50 186.882706
12.51 184.92482
12.52 184.791687
12.53 184.122772
12.54 184.276154
12.55 187.435059
12.56 184.926407
12.57 177.627884
12.58 184.180069
12.59 188.849762
12.60 183.116791
12.61 183.471268
12.62 191.858398
12.63 196.242722
12.64 190.699158
12.65 175.92601
12.66 177.466095
12.67 188.343018
12.68 180.012726
12.69 167.698914
12.70 168.719086
12.71 170.623825
12.72 170.236679
12.73 176.176071
12.74 178.234467
12.75 179.989792
12.76 178.852921
12.77 172.675903
12.78 169.985809
12.79 172.021332
12.80 179.828766
12.81 181.223663
12.82 171.9328
12.83 169.776169
12.84 172.613495
12.85 174.738602
12.86 170.697479
12.87 164.584518
12.88 159.151337
12.89 155.877899
12.90 156.345184
12.91 160.660095
12.92 165.209824
12.93 156.94017
12.94 149.731781
12.95 155.181549
12.96 155.484222
12.97 152.939789
12.98 153.876541
12.99 155.501602
13.00 157.047928
13.01 162.407562
13.02 161.330948
13.03 157.516876
13.04 160.010254
13.05 153.8694
13.06 158.972443
13.07 168.429138
13.08 157.07019
13.09 151.373886
13.10 152.501602
13.11 151.931931
13.12 147.422134
13.13 148.020035
13.14 154.114624
13.15 156.157242
13.16 162.551544
13.17 165.357361
13.18 156.454941
13.19 158.028076
13.20 159.661484
13.21 153.223694
13.22 152.279785
13.23 156.146011
13.24 156.287476
13.25 151.38765
13.26 154.177658
13.27 164.596176
13.28 167.160751
13.29 161.520172
13.30 162.837357
13.31 166.822739
13.32 162.939117
13.33 164.878159
13.34 167.345963
13.35 170.12648
13.36 168.750275
13.37 164.973709
13.38 167.620911
13.39 167.955231
13.40 166.565643
13.41 170.966446
13.42 174.863846
13.43 178.427017
13.44 182.388428
13.45 185.284592
13.46 182.538284
13.47 175.292313
13.48 174.113693
13.49 174.919601
13.50 176.789017
13.51 183.292282
13.52 188.781097
13.53 189.754288
13.54 185.187317
13.55 173.916779
13.56 171.94104
13.57 177.443893
13.58 183.06189
13.59 191.345779
13.60 200.769455
13.61 208.915573
13.62 208.495834
13.63 206.566406
13.64 205.805725
13.65 206.769424
13.66 205.459961
13.67 202.227844
13.68 207.191971
13.69 223.453262
13.70 222.722778
13.71 219.047836
13.72 220.738464
13.73 216.867447
13.74 222.125458
13.75 234.803467
13.76 241.835861
13.77 249.015289
13.78 256.759735
13.79 258.951447
13.80 259.045837
13.81 258.677002
13.82 263.70462
13.83 274.363953
13.84 281.145996
13.85 282.353485
13.86 282.895447
13.87 291.716583
13.88 308.988678
13.89 316.538635
13.90 319.995026
13.91 324.444427
13.92 333.327026
13.93 341.793121
13.94 355.641052
13.95 366.978699
13.96 368.931702
13.97 374.046051
13.98 383.276978
13.99 398.979187
14.00 413.717896
14.01 405.575897
14.02 403.198853
14.03 422.975311
14.04 435.576294
14.05 439.760803
14.06 451.328339
14.07 465.166901
14.08 474.705566
14.09 477.211243
14.10 467.990631
14.11 474.675781
14.12 482.53186
14.13 479.795868
14.14 481.627136
14.15 482.560059
14.16 493.934875
14.17 488.459656
14.18 470.664185
14.19 472.523315
14.20 468.011841
14.21 458.736664
14.22 460.796844
14.23 448.900787
14.24 431.508026
14.25 431.784485
14.26 433.871155
14.27 422.727539
14.28 409.869659
14.29 404.383057
14.30 380.334473
14.31 356.246429
14.32 342.839081
14.33 330.862793
14.34 320.608307
14.35 311.78064
14.36 306.446045
14.37 303.109985
14.38 294.593201
14.39 289.803314
14.40 275.513641
14.41 258.337067
14.42 252.153214
14.43 241.34877
14.44 228.997131
14.45 224.87883
14.46 222.24823
14.47 218.942719
14.48 219.624939
14.49 224.725677
14.50 231.205841
14.51 227.918289
14.52 218.733902
14.53 207.315033
14.54 202.091522
14.55 195.956802
14.56 191.489532
14.57 193.272095
14.58 191.015549
14.59 187.227219
14.60 186.963852
14.61 190.067322
14.62 194.710571
14.63 194.386017
14.64 188.169281
14.65 188.020569
14.66 189.644577
14.67 188.471939
14.68 183.594955
14.69 180.835236
14.70 176.739212
14.71 170.092407
14.72 176.269547
14.73 179.806305
14.74 177.673737
14.75 175.412827
14.76 166.619675
14.77 166.253433
14.78 164.620773
14.79 162.043915
14.80 168.899643
14.81 171.818726
14.82 172.185013
14.83 174.175507
14.84 172.429489
14.85 171.151917
14.86 175.050293
14.87 177.758286
14.88 172.809906
14.89 170.866486
14.90 177.389191
14.91 171.007538
14.92 157.036835
14.93 155.461807
14.94 160.150696
14.95 163.773743
14.96 164.002914
14.97 168.512894
14.98 170.69838
14.99 176.883545
15.00 178.091248
15.01 176.43541
15.02 176.546341
15.03 171.386093
15.04 173.963806
15.05 173.696289
15.06 164.535187
15.07 169.660431
15.08 179.057678
15.09 176.272781
15.10 172.001526
15.11 172.183395
15.12 176.544098
15.13 177.855881
15.14 180.381363
15.15 187.636414
15.16 182.379105
15.17 178.653732
15.18 178.275162
15.19 169.200882
15.20 168.842896
15.21 170.462418
15.22 169.972122
15.23 169.381912
15.24 172.491302
15.25 172.724792
15.26 174.486023
15.27 171.905975
15.28 170.755508
15.29 177.413849
15.30 180.789032
15.31 176.676865
15.32 171.517227
15.33 167.035843
15.34 165.383224
15.35 167.166092
15.36 165.74086
15.37 168.083206
15.38 176.812164
15.39 181.475037
15.40 191.644531
15.41 193.245422
15.42 185.561356
15.43 184.275696
15.44 181.390839
15.45 170.0513
15.46 169.42305
15.47 174.676315
15.48 174.188995
15.49 176.851715
15.50 179.948425
15.51 182.734497
15.52 179.706299
15.53 178.093307
15.54 182.120422
15.55 179.837692
15.56 174.918457
15.57 174.139938
15.58 175.772873
15.59 178.235397
15.60 179.154617
15.61 185.241653
15.62 177.646896
15.63 169.011002
15.64 172.320221
15.65 175.046661
15.66 176.998642
15.67 169.150024
15.68 170.473297
15.69 182.56221
15.70 178.734161
15.71 171.509171
15.72 175.856781
15.73 178.373627
15.74 173.405777
15.75 171.94162
15.76 176.32515
15.77 177.996185
15.78 177.664185
15.79 175.349228
15.80 176.247711
15.81 171.462631
15.82 159.175751
15.83 159.650208
15.84 167.39476
15.85 169.018921
15.86 174.361954
15.87 179.946426
15.88 182.819824
15.89 186.986343
15.90 188.504639
15.91 185.55513
15.92 181.149429
15.93 174.426987
15.94 169.770096
15.95 170.699738
15.96 180.172485
15.97 183.906937
15.98 179.173157
15.99 181.291565
16.00 178.906311
16.01 175.44043
16.02 176.555252
16.03 180.289658
16.04 181.007904
16.05 181.539749
16.06 185.212036
16.07 188.947769
16.08 187.99353
16.09 188.785599
16.10 183.747025
16.11 181.475998
16.12 186.519547
16.13 188.881363
16.14 188.392181
16.15 180.069656
16.16 177.166534
16.17 178.909882
16.18 183.817734
16.19 182.204208
16.20 184.692322
16.21 182.494202
16.22 178.834641
16.23 180.807922
16.24 182.432495
16.25 183.753113
16.26 185.548477
16.27 189.619675
16.28 184.34967
16.29 180.639038
16.30 182.272797
16.31 179.143738
16.32 178.149719
16.33 186.086884
16.34 187.559753
16.35 188.030334
16.36 189.242615
16.37 188.092941
16.38 190.270462
16.39 186.243958
16.40 184.081635
16.41 181.3965
16.42 180.919327
16.43 180.469986
16.44 183.783722
16.45 189.703064
16.46 184.309921
16.47 177.820053
16.48 174.432968
16.49 178.095932
16.50 180.151337
16.51 179.16243
16.52 184.350266
16.53 193.275192
16.54 192.3564
16.55 191.389664
16.56 193.170059
16.57 192.158249
16.58 188.703033
16.59 189.664474
16.60 191.039474
16.61 190.044937
16.62 185.973709
16.63 182.314758
16.64 186.320541
16.65 194.693268
16.66 196.517639
16.67 190.112106
16.68 189.156967
16.69 187.236191
16.70 187.386276
16.71 191.199005
16.72 192.116821
16.73 188.496155
16.74 186.823212
16.75 185.394333
16.76 185.957413
16.77 187.62558
16.78 188.145782
16.79 188.234604
16.80 186.603745
16.81 190.085388
16.82 192.212997
16.83 196.304077
16.84 191.780853
16.85 180.022278
16.86 182.399109
16.87 190.399246
16.88 193.898438
16.89 199.293503
16.90 196.996704
16.91 190.780457
16.92 183.20874
16.93 180.15303
16.94 185.435654
16.95 188.399475
16.96 186.644669
16.97 191.862259
16.98 189.926056
16.99 188.693314
17.00 189.415634
17.01 186.397491
17.02 185.059708
17.03 182.587708
17.04 184.878601
17.05 187.432678
17.06 187.637115
17.07 191.279526
17.08 192.567322
17.09 191.835464
17.10 190.75563
17.11 193.783875
17.12 195.409988
17.13 191.330872
17.14 184.083221
17.15 182.879532
17.16 188.355988
17.17 191.565063
17.18 186.485809
17.19 187.265701
17.20 196.958344
17.21 196.052643
17.22 193.280884
17.23 191.243118
17.24 193.676285
17.25 200.960571
17.26 209.203384
17.27 208.481461
17.28 201.452438
17.29 196.722488
17.30 198.357025
17.31 203.362762
17.32 197.93718
17.33 189.985138
17.34 190.869385
17.35 197.491196
17.36 194.050156
17.37 194.462067
17.38 203.126083
17.39 200.109833
17.40 194.488007
17.41 192.984665
17.42 182.685516
17.43 181.3284
17.44 192.733139
17.45 198.9785
17.46 194.891785
17.47 199.867126
17.48 206.790924
17.49 203.012589
17.50 200.902908
17.51 204.104965
17.52 200.265656
17.53 199.214996
17.54 202.412949
17.55 201.037186
17.56 195.241196
17.57 198.185593
17.58 197.020416
17.59 197.069717
17.60 206.009644
17.61 210.979904
17.62 203.053436
17.63 196.737427
17.64 194.868881
17.65 199.862869
17.66 206.670425
17.67 204.690598
17.68 200.38829
17.69 202.537857
17.70 206.766174
17.71 201.972488
17.72 202.254166
17.73 203.156036
17.74 195.990601
17.75 198.399612
17.76 208.652847
17.77 211.054184
17.78 213.170303
17.79 208.282074
17.80 201.455566
17.81 198.127853
17.82 199.747101
17.83 196.814819
17.84 196.929977
17.85 199.437927
17.86 201.741394
17.87 206.537552
17.88 210.665955
17.89 209.601898
17.90 208.403992
17.91 211.670654
17.92 212.331268
17.93 213.91098
17.94 209.000748
17.95 200.262009
17.96 194.58989
17.97 190.131439
17.98 193.03688
17.99 203.619492
18.00 206.86618
18.01 210.097778
18.02 215.236313
18.03 210.28183
18.04 201.875916
18.05 197.602036
18.06 198.644058
18.07 201.213974
18.08 198.336319
18.09 203.010971
18.10 207.671219
18.11 206.284744
18.12 204.004303
18.13 204.626083
18.14 207.447037
18.15 210.290894
18.16 209.460938
18.17 209.398834
18.18 216.360336
18.19 215.129868
18.20 212.15889
18.21 215.912216
18.22 221.737228
18.23 217.592239
18.24 214.587738
18.25 215.754166
18.26 208.862595
18.27 204.226318
18.28 206.513657
18.29 210.004013
18.30 210.304947
18.31 209.020645
18.32 209.697037
18.33 212.144943
18.34 218.616272
18.35 218.585495
18.36 213.302994
18.37 208.622513
18.38 209.198822
18.39 220.25769
18.40 227.272781
18.41 226.431427
18.42 217.906616
18.43 213.750763
18.44 215.184784
18.45 214.256775
18.46 215.541611
18.47 212.980606
18.48 207.876846
18.49 203.567078
18.50 207.137039
18.51 216.770279
18.52 215.426834
18.53 216.099106
18.54 218.889694
18.55 218.559174
18.56 212.394623
18.57 204.049042
18.58 203.983154
18.59 209.038757
18.60 211.895874
18.61 218.418259
18.62 226.485794
18.63 227.173859
18.64 225.589905
18.65 228.047989
18.66 227.857605
18.67 223.296021
18.68 220.290863
18.69 217.802643
18.70 220.629074
18.71 222.212219
18.72 215.544128
18.73 218.341125
18.74 219.419662
18.75 226.562302
18.76 228.368271
18.77 224.221375
18.78 223.307297
18.79 222.959244
18.80 224.483887
18.81 224.476028
18.82 227.534378
18.83 225.555756
18.84 218.224472
18.85 222.090805
18.86 224.70015
18.87 225.708313
18.88 224.124283
18.89 222.687759
18.90 225.662247
18.91 230.727402
18.92 236.237106
18.93 226.966385
18.94 217.08046
18.95 223.264297
18.96 219.767151
18.97 219.185852
18.98 220.042435
18.99 219.388
19.00 217.544952
19.01 221.296249
19.02 228.219421
19.03 229.855484
19.04 222.558655
19.05 219.780548
19.06 220.551651
19.07 222.743103
19.08 227.750229
19.09 233.035034
19.10 236.419312
19.11 237.025986
19.12 232.808014
19.13 226.358948
19.14 226.709122
19.15 237.383804
19.16 236.175507
19.17 231.374023
19.18 230.654846
19.19 226.402771
19.20 222.403015
19.21 225.990967
19.22 233.472595
19.23 231.806717
19.24 230.181183
19.25 237.643204
19.26 239.753098
19.27 235.470505
19.28 238.209015
19.29 242.877579
19.30 240.299622
19.31 235.995651
19.32 234.275452
19.33 236.12384
19.34 237.26593
19.35 230.382599
19.36 226.649139
19.37 235.779007
19.38 245.67334
19.39 249.489792
19.40 246.831421
19.41 240.593918
19.42 230.909393
19.43 230.366837
19.44 230.544464
19.45 229.517319
19.46 235.942719
19.47 240.801346
19.48 238.606857
19.49 239.62204
19.50 242.405563
19.51 244.942902
19.52 249.467072
19.53 249.168259
19.54 247.823364
19.55 244.648468
19.56 237.433594
19.57 235.845963
19.58 244.13913
19.59 248.880127
19.60 250.532867
19.61 249.767792
19.62 248.828995
19.63 251.839249
19.64 245.079102
19.65 239.991074
19.66 243.584488
19.67 239.512604
19.68 235.388443
19.69 232.753952
19.70 234.033829
19.71 239.001678
19.72 250.865036
19.73 255.55191
19.74 252.621094
19.75 250.175354
19.76 241.983978
19.77 248.709061
19.78 256.458527
19.79 257.036194
19.80 251.429779
19.81 254.740051
19.82 258.151947
19.83 255.094681
19.84 255.807266
19.85 257.749542
19.86 252.471649
19.87 248.585693
19.88 252.924667
19.89 256.227966
19.90 259.992523
19.91 265.518219
19.92 267.774536
19.93 269.230316
19.94 267.57019
19.95 261.671295
19.96 260.415375
19.97 266.82486
19.98 273.268768
19.99 271.489258
20.00 270.555298
20.01 272.564911
20.02 264.119385
20.03 258.753754
20.04 260.386719
20.05 267.065643
20.06 272.775757
20.07 270.9711
20.08 264.634369
20.09 268.569427
20.10 271.295746
20.11 270.198334
20.12 270.354919
20.13 269.747437
20.14 267.179077
20.15 274.547729
20.16 277.048859
20.17 270.850769
20.18 272.795593
20.19 277.852631
20.20 271.606079
20.21 263.678375
20.22 263.608734
20.23 268.040009
20.24 267.238525
20.25 270.472595
20.26 270.011627
20.27 266.021637
20.28 269.021881
20.29 264.224213
20.30 263.663849
20.31 271.923431
20.32 276.313568
20.33 269.540619
20.34 263.940613
20.35 264.807281
20.36 264.133423
20.37 259.320404
20.38 257.699677
20.39 263.156219
20.40 265.555328
20.41 271.421539
20.42 276.210114
20.43 268.83197
20.44 264.61853
20.45 262.823181
20.46 265.585022
20.47 269.504456
20.48 263.376831
20.49 258.805542
20.50 264.340393
20.51 274.184387
20.52 271.274139
20.53 268.690308
20.54 264.658691
20.55 265.302612
20.56 268.526215
20.57 268.449799
20.58 270.520905
20.59 263.747681
20.60 258.178711
20.61 265.050659
20.62 267.940033
20.63 260.521851
20.64 257.552887
20.65 267.312225
20.66 276.55545
20.67 277.609436
20.68 271.895477
20.69 276.085663
20.70 276.601746
20.71 268.930237
20.72 270.563751
20.73 279.544434
20.74 276.382507
20.75 271.268982
20.76 273.851166
20.77 276.938019
20.78 279.593689
20.79 280.009338
20.80 275.965942
20.81 276.617371
20.82 270.566711
20.83 266.557922
20.84 271.975189
20.85 281.912659
20.86 287.957275
20.87 282.592285
20.88 278.556122
20.89 268.715393
