!@!!GADDS PLOTSO FILE: Chi integration type
!@!!Title/SampleName: ML_MAPbX3_chem16
!@!!User: NREL
!@!!Site: NREL SERF C211; SN 2510
!@!!Frame: 081922_ML_MAPbX3_chem16_000_000.gfrm
!@!!Wavelengths    1.54184   1.54056   1.54439
!@!!Frame angles: 2Theta: 28.000 Omega: 5.000 Phi: 0.000 Chi: 90.000
!@!!Integration range: 2Theta: 9.100 to 40.800  Gamma: -121.900 to -57.900
!@!!Integration method: bin normalized
!@!N
!@!SS
!@!M
!@!L 0.0 0.0 0.0 0.0
!@!XDegrees
!@!YCounts
9.10 216.976456
9.11 212.947601
9.12 205.271332
9.13 209.610565
9.14 222.913864
9.15 225.586487
9.16 218.97197
9.17 209.142014
9.18 211.548218
9.19 216.355301
9.20 218.081665
9.21 219.230423
9.22 218.9944
9.23 222.410919
9.24 223.67099
9.25 224.003723
9.26 230.515717
9.27 237.77562
9.28 229.06395
9.29 224.588547
9.30 223.961563
9.31 225.122284
9.32 228.665619
9.33 226.749741
9.34 232.91806
9.35 234.69136
9.36 231.797607
9.37 231.575272
9.38 224.61348
9.39 215.768387
9.40 216.368439
9.41 219.936768
9.42 219.997513
9.43 217.426468
9.44 211.084396
9.45 207.513458
9.46 214.16246
9.47 223.367126
9.48 217.832016
9.49 211.45993
9.50 217.224945
9.51 224.232864
9.52 226.967255
9.53 226.913376
9.54 221.769501
9.55 220.144958
9.56 222.499847
9.57 220.68483
9.58 223.745087
9.59 226.265411
9.60 227.394348
9.61 230.678558
9.62 237.631622
9.63 240.333923
9.64 231.021729
9.65 231.768738
9.66 243.070404
9.67 242.740906
9.68 233.677811
9.69 224.285629
9.70 224.233841
9.71 223.058762
9.72 216.817902
9.73 225.027802
9.74 225.790283
9.75 224.170303
9.76 231.294235
9.77 234.942673
9.78 232.244751
9.79 230.403656
9.80 228.555084
9.81 232.164154
9.82 232.81369
9.83 230.180023
9.84 235.457687
9.85 235.119522
9.86 229.17955
9.87 227.577484
9.88 232.709335
9.89 237.917709
9.90 237.108856
9.91 227.773468
9.92 228.267181
9.93 226.450653
9.94 225.67128
9.95 231.017258
9.96 232.63591
9.97 236.135529
9.98 229.832535
9.99 230.464355
10.00 231.293854
10.01 227.4888
10.02 226.632706
10.03 225.735291
10.04 232.350098
10.05 225.225021
10.06 211.496002
10.07 223.635239
10.08 237.88147
10.09 233.656342
10.10 232.560226
10.11 234.912201
10.12 229.30249
10.13 235.227356
10.14 235.348358
10.15 228.801422
10.16 234.686142
10.17 234.740479
10.18 240.211624
10.19 239.816589
10.20 235.28717
10.21 242.695755
10.22 236.852158
10.23 232.18605
10.24 242.586823
10.25 239.719131
10.26 234.088165
10.27 241.023804
10.28 235.658936
10.29 229.639832
10.30 234.515564
10.31 237.761749
10.32 235.142303
10.33 238.187805
10.34 244.429596
10.35 235.690613
10.36 235.542175
10.37 240.091049
10.38 245.680099
10.39 243.64859
10.40 240.8246
10.41 240.923233
10.42 234.362396
10.43 237.696381
10.44 243.209946
10.45 245.779938
10.46 232.835571
10.47 224.186493
10.48 236.967133
10.49 241.901825
10.50 245.119263
10.51 244.383606
10.52 232.899338
10.53 237.076233
10.54 242.769043
10.55 239.853134
10.56 243.063858
10.57 242.049652
10.58 241.471237
10.59 242.46759
10.60 241.586823
10.61 238.252533
10.62 236.062592
10.63 242.188171
10.64 248.578964
10.65 240.973267
10.66 244.20517
10.67 253.560867
10.68 256.712097
10.69 256.036957
10.70 248.382126
10.71 238.911179
10.72 233.106628
10.73 234.67215
10.74 238.345047
10.75 240.887878
10.76 246.226074
10.77 251.770142
10.78 249.083389
10.79 246.676956
10.80 248.500046
10.81 250.253143
10.82 247.082199
10.83 240.840073
10.84 239.399765
10.85 242.851929
10.86 247.254868
10.87 249.754807
10.88 252.855377
10.89 255.56842
10.90 258.331848
10.91 260.157501
10.92 257.720459
10.93 250.368866
10.94 249.81636
10.95 249.492584
10.96 254.089386
10.97 267.153137
10.98 263.623779
10.99 260.54715
11.00 262.873444
11.01 264.012085
11.02 263.288086
11.03 253.947235
11.04 248.706329
11.05 251.551636
11.06 257.258728
11.07 260.1091
11.08 258.721924
11.09 258.610718
11.10 256.724426
11.11 252.091537
11.12 253.936722
11.13 251.543198
11.14 254.92337
11.15 261.125793
11.16 252.796448
11.17 248.974945
11.18 251.157837
11.19 253.046158
11.20 252.437119
11.21 249.279663
11.22 250.21315
11.23 255.717422
11.24 253.923538
11.25 253.051956
11.26 256.518066
11.27 256.143402
11.28 257.016266
11.29 263.17804
11.30 262.7276
11.31 260.526398
11.32 259.604309
11.33 250.699554
11.34 250.374939
11.35 257.80484
11.36 261.802399
11.37 261.188568
11.38 262.274963
11.39 258.227966
11.40 257.682526
11.41 259.004333
11.42 261.414551
11.43 259.568268
11.44 257.397919
11.45 260.931213
11.46 258.475464
11.47 259.964905
11.48 259.660583
11.49 259.161957
11.50 265.95813
11.51 257.764465
11.52 253.073532
11.53 258.666199
11.54 252.669952
11.55 259.324097
11.56 263.167084
11.57 262.6474
11.58 269.145782
11.59 263.647339
11.60 266.910614
11.61 276.668945
11.62 276.485413
11.63 274.523224
11.64 268.374176
11.65 265.453552
11.66 271.111969
11.67 272.027557
11.68 267.909241
11.69 266.094666
11.70 271.565094
11.71 277.932526
11.72 275.024658
11.73 268.506317
11.74 272.441559
11.75 272.91037
11.76 267.464752
11.77 261.040344
11.78 258.971771
11.79 264.007263
11.80 269.524994
11.81 275.594635
11.82 279.04776
11.83 278.959656
11.84 276.02832
11.85 275.8508
11.86 272.580872
11.87 275.937469
11.88 286.46283
11.89 284.272858
11.90 286.995911
11.91 289.606079
11.92 281.164246
11.93 278.32428
11.94 283.990509
11.95 284.429382
11.96 281.63208
11.97 283.366364
11.98 290.271667
11.99 292.113525
12.00 292.172394
12.01 296.251709
12.02 293.010834
12.03 287.61441
12.04 286.443909
12.05 286.453125
12.06 286.853333
12.07 281.514221
12.08 283.781158
12.09 294.946167
12.10 297.013702
12.11 294.373566
12.12 293.967804
12.13 298.654999
12.14 296.858917
12.15 297.30542
12.16 299.207123
12.17 291.821625
12.18 292.999664
12.19 296.100616
12.20 304.811615
12.21 308.675537
12.22 303.846527
12.23 303.884766
12.24 299.304016
12.25 301.019196
12.26 307.17337
12.27 313.335602
12.28 321.119812
12.29 330.776215
12.30 335.671417
12.31 331.642059
12.32 324.293884
12.33 324.1633
12.34 325.896942
12.35 337.839508
12.36 341.66449
12.37 341.775635
12.38 345.535736
12.39 346.31488
12.40 350.008545
12.41 355.939545
12.42 361.744293
12.43 362.829773
12.44 365.291718
12.45 360.868073
12.46 358.142212
12.47 364.620667
12.48 370.794312
12.49 381.147949
12.50 383.790894
12.51 369.332336
12.52 364.901031
12.53 370.007324
12.54 373.722992
12.55 376.571869
12.56 381.477173
12.57 380.274475
12.58 378.884552
12.59 377.440613
12.60 365.365387
12.61 371.544708
12.62 384.047241
12.63 391.573151
12.64 404.070404
12.65 401.832703
12.66 393.590881
12.67 383.318939
12.68 382.755402
12.69 383.561707
12.70 376.061188
12.71 372.216461
12.72 375.753601
12.73 368.949036
12.74 355.66333
12.75 353.406342
12.76 352.294037
12.77 349.766022
12.78 345.443512
12.79 334.594391
12.80 334.740784
12.81 338.528778
12.82 335.31073
12.83 336.430267
12.84 330.835266
12.85 325.337799
12.86 326.238373
12.87 335.868011
12.88 341.011017
12.89 331.065033
12.90 322.560028
12.91 318.460236
12.92 314.419739
12.93 313.043976
12.94 317.787872
12.95 322.375244
12.96 314.924744
12.97 306.507385
12.98 307.76593
12.99 310.359894
13.00 312.360107
13.01 307.061371
13.02 307.596771
13.03 311.198395
13.04 310.235901
13.05 314.073242
13.06 309.509888
13.07 302.029541
13.08 303.50589
13.09 305.370544
13.10 301.702209
13.11 304.761688
13.12 304.051758
13.13 299.368347
13.14 302.745056
13.15 302.250671
13.16 303.414429
13.17 301.900085
13.18 302.378662
13.19 303.265869
13.20 308.088013
13.21 305.955414
13.22 302.141632
13.23 304.559509
13.24 300.980072
13.25 295.98468
13.26 295.560486
13.27 298.824127
13.28 295.844269
13.29 291.45108
13.30 293.515167
13.31 292.74115
13.32 297.209412
13.33 305.699097
13.34 308.894196
13.35 303.902435
13.36 295.699677
13.37 294.456543
13.38 295.351654
13.39 291.048431
13.40 287.333496
13.41 287.632996
13.42 284.724487
13.43 287.987396
13.44 302.76123
13.45 308.353455
13.46 314.378784
13.47 316.567108
13.48 308.425171
13.49 305.250031
13.50 306.92569
13.51 309.528748
13.52 304.505432
13.53 301.810242
13.54 303.161682
13.55 302.948822
13.56 304.482544
13.57 299.022217
13.58 297.348602
13.59 309.54776
13.60 322.099457
13.61 313.820831
13.62 300.819031
13.63 303.484131
13.64 309.451385
13.65 311.598267
13.66 317.541443
13.67 323.292175
13.68 319.403656
13.69 319.872894
13.70 312.101532
13.71 307.780304
13.72 314.458893
13.73 307.191162
13.74 295.3862
13.75 292.309052
13.76 291.929199
13.77 303.040375
13.78 306.31015
13.79 308.626068
13.80 318.325684
13.81 323.654572
13.82 323.947998
13.83 317.887878
13.84 322.339233
13.85 319.275116
13.86 316.423981
13.87 324.045898
13.88 324.816437
13.89 329.310455
13.90 328.71756
13.91 324.129883
13.92 318.429626
13.93 319.690338
13.94 326.203674
13.95 328.305786
13.96 332.420349
13.97 339.044189
13.98 342.868774
13.99 336.99292
14.00 326.49176
14.01 324.274139
14.02 331.977234
14.03 335.850281
14.04 335.87561
14.05 334.079834
14.06 331.715088
14.07 325.327972
14.08 329.640747
14.09 337.601166
14.10 340.115845
14.11 339.873291
14.12 332.922394
14.13 325.291962
14.14 321.131104
14.15 322.648773
14.16 336.685516
14.17 346.910431
14.18 344.66275
14.19 340.95694
14.20 338.528748
14.21 340.363647
14.22 343.942169
14.23 346.762878
14.24 347.162964
14.25 336.665253
14.26 330.414307
14.27 325.627563
14.28 328.904572
14.29 335.290161
14.30 329.644836
14.31 331.59317
14.32 329.591888
14.33 323.224426
14.34 326.42868
14.35 324.521362
14.36 321.865051
14.37 328.172821
14.38 329.444366
14.39 330.772644
14.40 335.629547
14.41 339.866577
14.42 342.091919
14.43 334.635468
14.44 324.764954
14.45 316.622437
14.46 315.00769
14.47 317.283966
14.48 324.615479
14.49 330.24469
14.50 328.681122
14.51 333.984283
14.52 334.368774
14.53 327.814819
14.54 330.933563
14.55 335.202637
14.56 333.111298
14.57 332.888367
14.58 337.593842
14.59 338.41394
14.60 338.194122
14.61 332.795074
14.62 326.125092
14.63 327.94165
14.64 330.218567
14.65 334.153168
14.66 347.126465
14.67 349.56369
14.68 342.411835
14.69 343.077942
14.70 348.509979
14.71 353.818939
14.72 354.972626
14.73 353.319458
14.74 355.685059
14.75 357.372345
14.76 358.133057
14.77 353.780273
14.78 359.939545
14.79 365.658051
14.80 365.770569
14.81 372.883331
14.82 371.15741
14.83 373.889191
14.84 379.024109
14.85 382.815979
14.86 387.06601
14.87 394.871552
14.88 400.136749
14.89 417.275146
14.90 417.178345
14.91 401.985046
14.92 402.14209
14.93 416.169342
14.94 425.786957
14.95 426.833893
14.96 433.393066
14.97 445.748108
14.98 452.661652
14.99 456.333984
15.00 471.107422
15.01 481.936493
15.02 491.980042
15.03 479.163361
15.04 478.721588
15.05 492.946899
15.06 510.410858
15.07 528.085815
15.08 544.912415
15.09 556.294922
15.10 563.634949
15.11 565.771362
15.12 575.213379
15.13 593.635864
15.14 607.445129
15.15 627.648315
15.16 637.303589
15.17 656.662231
15.18 674.244446
15.19 676.014893
15.20 673.818176
15.21 700.262207
15.22 722.402649
15.23 750.025085
15.24 766.771057
15.25 793.702026
15.26 805.00293
15.27 820.458862
15.28 861.305847
15.29 882.5
15.30 889.681335
15.31 908.071228
15.32 940.517883
15.33 948.72699
15.34 958.118286
15.35 954.487122
15.36 960.937622
15.37 964.470947
15.38 982.757202
15.39 989.250854
15.40 981.280823
15.41 986.083313
15.42 994.450317
15.43 1002.325134
15.44 989.322998
15.45 964.369812
15.46 949.721802
15.47 935.971008
15.48 920.518066
15.49 904.384277
15.50 887.84375
15.51 852.635925
15.52 832.085144
15.53 778.078369
15.54 754.788269
15.55 737.323608
15.56 721.88739
15.57 708.067322
15.58 696.952576
15.59 662.763733
15.60 628.87616
15.61 608.552673
15.62 591.292603
15.63 581.340332
15.64 562.041626
15.65 553.527161
15.66 535.609619
15.67 526.595581
15.68 513.250061
15.69 508.647339
15.70 496.529175
15.71 481.94342
15.72 484.082733
15.73 480.744934
15.74 463.376129
15.75 449.839203
15.76 442.546509
15.77 443.32843
15.78 440.440735
15.79 431.958466
15.80 438.123169
15.81 428.659454
15.82 419.88678
15.83 419.415039
15.84 415.57959
15.85 410.628143
15.86 408.393433
15.87 414.779266
15.88 415.641724
15.89 413.241913
15.90 410.202148
15.91 398.093079
15.92 384.806854
15.93 378.607788
15.94 380.960754
15.95 381.28775
15.96 381.365265
15.97 387.728271
15.98 389.564331
15.99 381.442719
16.00 374.756989
16.01 372.825378
16.02 374.55835
16.03 378.376648
16.04 383.786041
16.05 394.243347
16.06 390.287811
16.07 378.968964
16.08 370.027649
16.09 363.172272
16.10 362.312958
16.11 362.538605
16.12 364.339325
16.13 363.8815
16.14 363.807098
16.15 366.440033
16.16 366.865936
16.17 359.819
16.18 354.488495
16.19 353.500763
16.20 356.396515
16.21 361.860168
16.22 359.683868
16.23 358.620911
16.24 358.796295
16.25 363.554321
16.26 362.444092
16.27 353.639221
16.28 350.807373
16.29 352.517242
16.30 357.33783
16.31 364.018433
16.32 361.850708
16.33 358.744293
16.34 357.840271
16.35 355.425568
16.36 356.739746
16.37 358.700073
16.38 360.729095
16.39 357.39267
16.40 354.854187
16.41 352.061615
16.42 347.466034
16.43 348.137207
16.44 348.201996
16.45 349.34256
16.46 352.445251
16.47 349.0336
16.48 351.44989
16.49 358.733093
16.50 355.804382
16.51 352.1073
16.52 362.820648
16.53 364.732422
16.54 354.724335
16.55 354.073059
16.56 354.554596
16.57 352.463104
16.58 351.305725
16.59 351.205841
16.60 346.693512
16.61 347.936432
16.62 356.740234
16.63 359.162872
16.64 354.7052
16.65 351.952576
16.66 353.00412
16.67 351.049713
16.68 349.687439
16.69 354.933777
16.70 356.05249
16.71 348.54483
16.72 347.333771
16.73 347.995117
16.74 345.075653
16.75 347.432129
16.76 350.210846
16.77 343.521973
16.78 344.711853
16.79 347.569305
16.80 347.064941
16.81 348.336334
16.82 350.05365
16.83 351.836029
16.84 348.065186
16.85 351.934723
16.86 359.01889
16.87 360.148438
16.88 358.028351
16.89 356.254181
16.90 342.522858
16.91 337.134827
16.92 345.941742
16.93 349.291595
16.94 347.762512
16.95 348.123108
16.96 348.697327
16.97 348.96579
16.98 350.796387
16.99 361.605377
17.00 367.006287
17.01 359.827393
17.02 355.516724
17.03 350.453247
17.04 348.424164
17.05 349.635559
17.06 357.933807
17.07 364.287964
17.08 367.283752
17.09 369.174377
17.10 365.226227
17.11 360.704803
17.12 357.783417
17.13 361.976807
17.14 363.767456
17.15 358.770691
17.16 352.053864
17.17 353.083771
17.18 360.137268
17.19 360.816772
17.20 362.685303
17.21 366.093567
17.22 359.227539
17.23 356.304535
17.24 355.666809
17.25 350.507111
17.26 353.61377
17.27 360.809875
17.28 355.778473
17.29 353.84198
17.30 359.246521
17.31 359.203278
17.32 353.882233
17.33 352.468597
17.34 357.552643
17.35 358.32666
17.36 360.739227
17.37 364.03183
17.38 365.466553
17.39 366.157104
17.40 357.65686
17.41 355.374451
17.42 353.817139
17.43 356.817169
17.44 368.362976
17.45 369.692261
17.46 368.216553
17.47 374.218903
17.48 376.992462
17.49 371.045593
17.50 373.203827
17.51 377.70816
17.52 372.577911
17.53 380.629059
17.54 388.697113
17.55 386.067017
17.56 385.363037
17.57 380.582581
17.58 379.891144
17.59 385.150421
17.60 383.932556
17.61 376.660767
17.62 378.796936
17.63 380.821289
17.64 370.048309
17.65 365.109406
17.66 373.356476
17.67 377.828308
17.68 379.14035
17.69 381.840912
17.70 382.751465
17.71 376.147003
17.72 368.675995
17.73 370.418945
17.74 383.471558
17.75 390.964233
17.76 396.190979
17.77 397.34671
17.78 388.897095
17.79 379.308777
17.80 374.358612
17.81 372.612732
17.82 366.155853
17.83 371.173553
17.84 381.515625
17.85 380.243011
17.86 380.598999
17.87 383.639984
17.88 387.579315
17.89 384.421021
17.90 377.101318
17.91 376.250092
17.92 377.284149
17.93 384.797699
17.94 390.436096
17.95 388.736633
17.96 393.668579
17.97 393.355835
17.98 393.290497
17.99 397.56134
18.00 399.211395
18.01 400.192078
18.02 395.954529
18.03 387.0495
18.04 377.998688
18.05 375.22171
18.06 377.843719
18.07 384.475861
18.08 390.722076
18.09 392.343048
18.10 388.834656
18.11 387.048401
18.12 385.685699
18.13 383.439117
18.14 383.14566
18.15 385.025543
18.16 395.425995
18.17 397.262787
18.18 390.129761
18.19 385.730194
18.20 389.027893
18.21 393.854065
18.22 397.000885
18.23 400.93631
18.24 406.61853
18.25 408.394867
18.26 407.755371
18.27 404.437439
18.28 401.080688
18.29 398.359344
18.30 402.138794
18.31 406.958832
18.32 401.774963
18.33 391.834259
18.34 388.073181
18.35 385.441193
18.36 386.087402
18.37 386.399963
18.38 388.942047
18.39 393.25119
18.40 400.575531
18.41 404.063019
18.42 409.9953
18.43 412.463593
18.44 402.436096
18.45 404.856201
18.46 413.566132
18.47 411.345215
18.48 406.112549
18.49 401.548676
18.50 397.495483
18.51 396.606873
18.52 402.589478
18.53 406.548126
18.54 406.067078
18.55 405.920227
18.56 405.558258
18.57 408.153473
18.58 408.898254
18.59 405.380249
18.60 407.408997
18.61 408.941315
18.62 413.332214
18.63 416.000366
18.64 411.616333
18.65 410.079742
18.66 410.648712
18.67 409.609497
18.68 414.744934
18.69 422.665314
18.70 416.234985
18.71 410.195984
18.72 416.921722
18.73 421.636169
18.74 418.23114
18.75 412.233124
18.76 406.512878
18.77 403.047333
18.78 412.544434
18.79 422.77417
18.80 419.458008
18.81 419.454803
18.82 423.702667
18.83 425.242249
18.84 420.838898
18.85 411.472229
18.86 402.82666
18.87 397.476776
18.88 403.528442
18.89 414.21344
18.90 423.303253
18.91 420.998596
18.92 414.097565
18.93 414.058655
18.94 415.8992
18.95 417.214874
18.96 408.560669
18.97 407.824799
18.98 416.751953
18.99 419.920074
19.00 421.325989
19.01 430.885559
19.02 438.942444
19.03 435.216888
19.04 430.687408
19.05 425.248657
19.06 417.76947
19.07 421.646118
19.08 426.457184
19.09 426.536377
19.10 426.020477
19.11 420.283447
19.12 416.686859
19.13 427.570526
19.14 433.678802
19.15 427.478882
19.16 423.640961
19.17 420.670685
19.18 424.535797
19.19 434.038605
19.20 435.866028
19.21 428.46936
19.22 425.561371
19.23 427.683899
19.24 430.596832
19.25 441.499542
19.26 454.002747
19.27 456.597595
19.28 447.63446
19.29 439.398804
19.30 438.223175
19.31 443.332611
19.32 447.006836
19.33 441.888458
19.34 434.800201
19.35 430.389343
19.36 432.591156
19.37 442.432312
19.38 452.007721
19.39 458.64032
19.40 460.278015
19.41 454.285828
19.42 447.947205
19.43 444.824554
19.44 441.547272
19.45 434.260559
19.46 439.556549
19.47 446.213287
19.48 448.395203
19.49 453.395599
19.50 457.546936
19.51 451.935455
19.52 452.231232
19.53 457.866455
19.54 453.969208
19.55 450.258392
19.56 447.088928
19.57 444.779327
19.58 454.145935
19.59 460.881805
19.60 455.492493
19.61 451.647247
19.62 450.504364
19.63 448.727081
19.64 439.001923
19.65 440.801636
19.66 449.898193
19.67 447.52121
19.68 447.895203
19.69 459.611023
19.70 470.24527
19.71 468.115753
19.72 471.988434
19.73 473.144806
19.74 461.118744
19.75 454.283752
19.76 450.045013
19.77 445.173126
19.78 451.865906
19.79 458.615021
19.80 458.203522
19.81 461.004669
19.82 462.057587
19.83 453.621979
19.84 450.773529
19.85 458.275391
19.86 461.67099
19.87 461.460327
19.88 459.330719
19.89 458.596527
19.90 467.500275
19.91 474.203796
19.92 470.076324
19.93 462.628204
19.94 466.824493
19.95 474.811066
19.96 478.855835
19.97 479.360657
19.98 479.214691
19.99 481.753876
20.00 479.84729
20.01 473.417053
20.02 467.298615
20.03 464.960449
20.04 469.305817
20.05 478.434937
20.06 486.987488
