!@!!GADDS PLOTSO FILE: Chi integration type
!@!!Title/SampleName: ML_MAPbX3_chem16_longer
!@!!User: NREL
!@!!Site: NREL SERF C211; SN 2510
!@!!Frame: 081922_ML_MAPbX3_chem16_long_000_001.gfrm
!@!!Wavelengths    1.54184   1.54056   1.54439
!@!!Frame angles: 2Theta: 28.000 Omega: 5.000 Phi: 0.000 Chi: 90.000
!@!!Integration range: 2Theta: 9.100 to 40.100  Gamma: -121.900 to -57.900
!@!!Integration method: bin normalized
!@!N
!@!SS
!@!M
!@!L 0.0 0.0 0.0 0.0
!@!XDegrees
!@!YCounts
9.10 461.696564
9.11 466.784027
9.12 457.356171
9.13 453.791199
9.14 455.884125
9.15 462.883301
9.16 466.795044
9.17 461.103027
9.18 454.503662
9.19 449.766876
9.20 448.526459
9.21 457.069153
9.22 464.609192
9.23 472.995941
9.24 472.319672
9.25 459.366882
9.26 453.48465
9.27 451.145752
9.28 439.927032
9.29 440.437927
9.30 445.575653
9.31 448.230804
9.32 457.517639
9.33 460.008575
9.34 464.265747
9.35 461.592865
9.36 451.556793
9.37 445.647552
9.38 451.438354
9.39 461.640961
9.40 463.737579
9.41 455.701477
9.42 451.002167
9.43 463.882446
9.44 467.683594
9.45 463.571045
9.46 472.371124
9.47 478.020355
9.48 480.446167
9.49 480.558838
9.50 471.490906
9.51 468.336823
9.52 478.107117
9.53 476.267883
9.54 459.784088
9.55 461.760681
9.56 485.291779
9.57 496.063873
9.58 482.079071
9.59 469.176666
9.60 461.672272
9.61 456.213501
9.62 460.246338
9.63 464.750488
9.64 468.883881
9.65 486.499786
9.66 484.278625
9.67 466.26709
9.68 466.943512
9.69 473.057037
9.70 473.560272
9.71 476.498413
9.72 486.463257
9.73 495.467896
9.74 495.007904
9.75 484.691223
9.76 485.337067
9.77 490.723663
9.78 487.127502
9.79 487.956848
9.80 491.054474
9.81 488.120117
9.82 484.252014
9.83 481.559631
9.84 484.461212
9.85 490.290161
9.86 490.147461
9.87 489.69986
9.88 495.530853
9.89 489.100006
9.90 482.660583
9.91 486.489716
9.92 481.611328
9.93 472.841949
9.94 468.977936
9.95 460.904755
9.96 471.900238
9.97 486.416779
9.98 493.135193
9.99 503.097076
10.00 498.962311
10.01 489.560242
10.02 494.772339
10.03 506.522247
10.04 505.08905
10.05 488.309601
10.06 486.845978
10.07 485.473877
10.08 476.736206
10.09 485.857727
10.10 501.508453
10.11 505.329498
10.12 500.526001
10.13 492.715149
10.14 487.17157
10.15 489.900146
10.16 487.568939
10.17 488.855042
10.18 494.457123
10.19 491.367737
10.20 494.983002
10.21 499.666473
10.22 489.057953
10.23 488.158203
10.24 500.101196
10.25 496.066071
10.26 496.472504
10.27 506.211853
10.28 505.829285
10.29 502.494843
10.30 497.561737
10.31 498.391235
10.32 504.749756
10.33 508.625427
10.34 509.830597
10.35 506.420197
10.36 502.396973
10.37 508.365021
10.38 519.932373
10.39 507.004272
10.40 488.638214
10.41 487.709808
10.42 497.69635
10.43 492.334503
10.44 484.412445
10.45 494.256256
10.46 504.238068
10.47 505.298126
10.48 506.954071
10.49 517.413391
10.50 506.880859
10.51 497.852661
10.52 502.55719
10.53 500.577881
10.54 503.993683
10.55 505.952667
10.56 506.55661
10.57 501.475067
10.58 500.28244
10.59 509.330902
10.60 516.750244
10.61 517.793518
10.62 514.48584
10.63 519.010254
10.64 528.842651
10.65 518.850403
10.66 513.685425
10.67 518.872192
10.68 520.032959
10.69 515.470032
10.70 515.649719
10.71 511.849487
10.72 510.997009
10.73 518.307068
10.74 512.616333
10.75 510.000671
10.76 519.007385
10.77 524.982727
10.78 525.940125
10.79 525.646851
10.80 522.184631
10.81 523.946777
10.82 532.148804
10.83 537.944214
10.84 536.58905
10.85 521.29425
10.86 514.849304
10.87 514.170471
10.88 503.562439
10.89 500.801605
10.90 513.625916
10.91 519.930115
10.92 520.094666
10.93 522.011841
10.94 534.202454
10.95 541.487854
10.96 537.203918
10.97 530.43634
10.98 521.922729
10.99 519.328247
11.00 506.322235
11.01 505.018005
11.02 514.106384
11.03 515.283142
11.04 517.334106
11.05 523.778687
11.06 529.900085
11.07 528.464111
11.08 526.243286
11.09 531.779968
11.10 534.8302
11.11 538.182129
11.12 538.032776
11.13 524.811829
11.14 527.90802
11.15 531.713684
11.16 531.769348
11.17 533.940979
11.18 523.079712
11.19 523.379028
11.20 523.488037
11.21 524.457275
11.22 541.386536
11.23 543.483398
11.24 543.006531
11.25 544.55542
11.26 545.114929
11.27 545.874634
11.28 537.311096
11.29 538.134277
11.30 537.989807
11.31 528.874329
11.32 536.126892
11.33 544.427673
11.34 541.753479
11.35 537.500305
11.36 535.622498
11.37 537.800232
11.38 533.574829
11.39 531.146973
11.40 543.071899
11.41 544.556091
11.42 547.171692
11.43 545.833984
11.44 543.560974
11.45 539.783142
11.46 534.319885
11.47 533.557495
11.48 536.882446
11.49 555.186462
11.50 563.027832
11.51 555.614746
11.52 548.454895
11.53 549.882324
11.54 550.740662
11.55 540.689514
11.56 535.325867
11.57 538.843689
11.58 547.024414
11.59 562.790405
11.60 566.359131
11.61 562.059265
11.62 557.371094
11.63 550.914551
11.64 545.49231
11.65 549.026733
11.66 558.460388
11.67 557.162659
11.68 553.778442
11.69 556.642517
11.70 552.652405
11.71 556.731384
11.72 560.99884
11.73 562.92627
11.74 573.576965
11.75 577.349182
11.76 569.712097
11.77 561.749146
11.78 564.545532
11.79 569.472229
11.80 575.5578
11.81 579.695435
11.82 576.434937
11.83 570.057861
11.84 562.230286
11.85 561.293701
11.86 577.07135
11.87 595.362976
11.88 595.727905
11.89 584.222473
11.90 564.249939
11.91 566.115906
11.92 582.989746
11.93 585.179688
11.94 580.657532
11.95 579.07196
11.96 588.31842
11.97 586.127014
11.98 579.679749
11.99 587.938904
12.00 590.003479
12.01 587.19696
12.02 591.228821
12.03 596.857849
12.04 602.302734
12.05 608.227783
12.06 614.888672
12.07 617.913269
12.08 616.611572
12.09 612.61792
12.10 606.533203
12.11 621.821045
12.12 638.287048
12.13 640.90686
12.14 648.258423
12.15 648.154602
12.16 652.732788
12.17 662.508606
12.18 653.971985
12.19 646.452515
12.20 650.403564
12.21 655.532776
12.22 656.489502
12.23 655.336121
12.24 668.665344
12.25 678.613159
12.26 674.822693
12.27 660.376099
12.28 654.054443
12.29 656.573486
12.30 664.904724
12.31 681.743591
12.32 696.484863
12.33 709.08374
12.34 709.792236
12.35 706.598328
12.36 714.475281
12.37 728.559509
12.38 727.235229
12.39 715.471619
12.40 716.510254
12.41 731.105591
12.42 742.903625
12.43 745.38855
12.44 751.030945
12.45 759.138855
12.46 759.461853
12.47 757.317017
12.48 766.477112
12.49 773.071289
12.50 779.572083
12.51 792.27301
12.52 808.18158
12.53 818.832458
12.54 802.746582
12.55 800.568359
12.56 813.879333
12.57 807.026855
12.58 810.818848
12.59 824.551941
12.60 825.886047
12.61 814.260559
12.62 807.381714
12.63 801.387451
12.64 804.08783
12.65 805.838745
12.66 806.252686
12.67 809.728577
12.68 796.260254
12.69 790.566101
12.70 789.886597
12.71 774.1875
12.72 767.282471
12.73 767.215271
12.74 766.747437
12.75 766.84967
12.76 755.27179
12.77 754.721985
12.78 760.034119
12.79 748.555481
12.80 742.383789
12.81 727.80603
12.82 720.917847
12.83 704.961914
12.84 696.082581
12.85 695.847107
12.86 697.897766
12.87 697.098206
12.88 687.798767
12.89 676.919922
12.90 673.63092
12.91 673.842712
12.92 665.467468
12.93 664.155945
12.94 672.499084
12.95 674.457214
12.96 675.401489
12.97 676.862549
12.98 678.120544
12.99 674.583252
13.00 670.406372
13.01 653.007751
13.02 646.566589
13.03 649.102112
13.04 647.210754
13.05 652.460083
13.06 646.378357
13.07 633.221375
13.08 637.408936
13.09 645.262207
13.10 647.755737
13.11 645.179016
13.12 644.089172
13.13 645.032593
13.14 639.011658
13.15 635.917664
13.16 628.307251
13.17 623.922791
13.18 625.09375
13.19 633.719849
13.20 645.432556
13.21 643.530823
13.22 641.016602
13.23 635.038269
13.24 631.517761
13.25 631.463928
13.26 630.326599
13.27 618.43927
13.28 613.6203
13.29 624.526001
13.30 636.97406
13.31 648.87915
13.32 648.501648
13.33 636.245544
13.34 635.344116
13.35 622.890198
13.36 607.39447
13.37 608.396301
13.38 619.103943
13.39 630.43927
13.40 632.470337
13.41 625.760376
13.42 623.229126
13.43 625.55011
13.44 624.339722
13.45 634.532104
13.46 649.569092
13.47 643.903931
13.48 629.172607
13.49 621.566345
13.50 627.891113
13.51 628.068237
13.52 627.431519
13.53 646.772827
13.54 655.593384
13.55 646.567505
13.56 644.049744
13.57 649.83728
13.58 649.364258
13.59 632.858093
13.60 635.79895
13.61 638.77301
13.62 633.968689
13.63 636.410339
13.64 644.679138
13.65 646.685913
13.66 645.787231
13.67 655.62384
13.68 656.490967
13.69 653.592773
13.70 652.390686
13.71 656.541809
13.72 652.590088
13.73 642.506714
13.74 645.164185
13.75 644.450195
13.76 646.593262
13.77 641.625
13.78 644.454041
13.79 667.287048
13.80 678.69873
13.81 673.405334
13.82 673.264526
13.83 671.702881
13.84 672.451721
13.85 668.031555
13.86 659.615967
13.87 659.675232
13.88 659.561401
13.89 666.239075
13.90 680.207581
13.91 677.692505
13.92 671.277649
13.93 667.499817
13.94 663.596863
13.95 660.622437
13.96 666.404419
13.97 682.562622
13.98 687.34436
13.99 689.545593
14.00 689.548889
14.01 685.900024
14.02 691.150146
14.03 688.348999
14.04 689.661377
14.05 700.847107
14.06 692.688293
14.07 692.223694
14.08 698.374939
14.09 703.648254
14.10 709.90387
14.11 704.257141
14.12 698.793701
14.13 700.264221
14.14 703.23584
14.15 698.748413
14.16 701.764954
14.17 696.269226
14.18 688.328369
14.19 693.049133
14.20 696.415527
14.21 699.259155
14.22 707.98053
14.23 704.62854
14.24 693.640015
14.25 692.501465
14.26 690.362122
14.27 689.01947
14.28 690.73761
14.29 692.562683
14.30 685.544983
14.31 682.559387
14.32 678.413696
14.33 674.078979
14.34 674.949219
14.35 671.263062
14.36 682.893799
14.37 689.160217
14.38 683.764893
14.39 686.505737
14.40 682.080505
14.41 679.96051
14.42 683.238159
14.43 686.029236
14.44 677.930481
14.45 672.755066
14.46 682.816956
14.47 696.531433
14.48 695.292725
14.49 680.374817
14.50 686.480713
14.51 691.890076
14.52 688.583801
14.53 692.693542
14.54 690.728943
14.55 682.323181
14.56 678.64386
14.57 684.535461
14.58 694.318909
14.59 704.052673
14.60 706.654724
14.61 704.95813
14.62 698.908875
14.63 694.938599
14.64 701.079285
14.65 702.220154
14.66 717.083374
14.67 729.172607
14.68 730.126038
14.69 735.914612
14.70 739.068726
14.71 733.05542
14.72 732.809143
14.73 743.906311
14.74 755.411194
14.75 761.358398
14.76 766.407288
14.77 763.928223
14.78 768.519409
14.79 780.186584
14.80 780.398254
14.81 787.734131
14.82 793.777649
14.83 796.479248
14.84 784.384399
14.85 789.024841
14.86 811.723389
14.87 828.639587
14.88 831.506714
14.89 853.857361
14.90 871.461487
14.91 878.169006
14.92 873.23291
14.93 870.483704
14.94 876.287231
14.95 895.715454
14.96 916.265686
14.97 927.163147
14.98 935.316772
14.99 945.019104
15.00 963.125793
15.01 974.21106
15.02 991.724243
15.03 1008.506958
15.04 1040.739014
15.05 1042.126709
15.06 1067.974121
15.07 1101.135864
15.08 1122.317627
15.09 1139.078247
15.10 1153.893677
15.11 1184.275513
15.12 1210.167236
15.13 1247.830078
15.14 1267.636719
15.15 1301.179321
15.16 1322.35498
15.17 1345.584106
15.18 1376.638062
15.19 1431.400391
15.20 1459.718994
15.21 1493.529297
15.22 1524.005005
15.23 1583.015625
15.24 1606.044556
15.25 1660.512329
15.26 1715.150513
15.27 1749.647217
15.28 1787.796875
15.29 1804.013794
15.30 1828.781616
15.31 1854.145386
15.32 1905.250488
15.33 1953.58606
15.34 2008.083618
15.35 2027.382446
15.36 2057.691895
15.37 2072.546143
15.38 2096.544434
15.39 2113.0896
15.40 2132.85498
15.41 2132.709229
15.42 2107.900635
15.43 2091.264893
15.44 2069.743896
15.45 2031.939087
15.46 2006.136353
15.47 1972.083374
15.48 1933.973877
15.49 1883.400879
15.50 1839.097412
15.51 1763.697876
15.52 1736.548584
15.53 1671.935669
15.54 1652.61145
15.55 1593.083496
15.56 1532.96875
15.57 1479.666992
15.58 1421.667236
15.59 1367.575439
15.60 1323.409424
15.61 1282.565552
15.62 1236.911499
15.63 1202.813477
15.64 1153.572021
15.65 1135.185303
15.66 1115.475098
15.67 1100.360962
15.68 1075.360718
15.69 1062.63208
15.70 1035.425659
15.71 1013.088623
15.72 995.089539
15.73 978.266968
15.74 960.361389
15.75 936.636841
15.76 912.25116
15.77 908.193176
15.78 902.29541
15.79 893.500244
15.80 898.520142
15.81 885.882141
15.82 876.137878
15.83 867.592346
15.84 865.080444
15.85 855.266663
15.86 847.960632
15.87 849.57312
15.88 846.947083
15.89 828.96814
15.90 814.103149
15.91 803.742554
15.92 797.930908
15.93 801.640381
15.94 797.193848
15.95 800.652649
15.96 809.354675
15.97 813.079956
15.98 813.49408
15.99 797.837036
16.00 783.023193
16.01 790.014404
16.02 788.408508
16.03 773.26239
16.04 767.211365
16.05 769.052979
16.06 767.51825
16.07 766.522278
16.08 758.229492
16.09 744.04895
16.10 735.859009
16.11 742.640686
16.12 747.969788
16.13 748.059509
16.14 747.856262
16.15 742.761047
16.16 741.347839
16.17 749.036926
16.18 758.22644
16.19 758.536438
16.20 752.336914
16.21 747.013123
16.22 740.496033
16.23 734.575012
16.24 734.263245
16.25 742.810425
16.26 749.875916
16.27 760.662598
16.28 751.987183
16.29 738.509949
16.30 734.852356
16.31 740.384521
16.32 760.095703
16.33 758.451599
16.34 747.334595
16.35 737.111877
16.36 736.604126
16.37 740.736694
16.38 733.203247
16.39 730.122925
16.40 729.862305
16.41 723.299561
16.42 731.343079
16.43 742.462952
16.44 744.499451
16.45 738.878479
16.46 733.345398
16.47 736.84082
16.48 746.81189
16.49 745.854797
16.50 733.51709
16.51 731.35437
16.52 729.480103
16.53 728.472839
16.54 729.911499
16.55 733.505615
16.56 747.092468
16.57 749.291443
16.58 746.384338
16.59 741.795959
16.60 739.259521
16.61 734.917358
16.62 736.673096
16.63 746.815552
16.64 738.951904
16.65 737.696289
16.66 744.180786
16.67 729.717224
16.68 725.656372
16.69 741.086487
16.70 747.17511
16.71 751.291565
16.72 749.817627
16.73 745.100464
16.74 748.744507
16.75 747.655518
16.76 746.103149
16.77 749.418213
16.78 748.03479
16.79 751.09491
16.80 763.962646
16.81 763.929993
16.82 758.873535
16.83 755.352661
16.84 745.820374
16.85 746.327759
16.86 757.994629
16.87 764.759094
16.88 757.742126
16.89 744.765381
16.90 736.829468
16.91 733.101318
16.92 736.354004
16.93 741.204407
16.94 744.676392
16.95 757.806641
16.96 766.283813
16.97 754.739258
16.98 744.335632
16.99 746.185669
17.00 753.608704
17.01 757.628845
17.02 758.51123
17.03 754.734192
17.04 743.649963
17.05 737.962097
17.06 740.59613
17.07 744.205688
17.08 747.195679
17.09 749.132446
17.10 745.493042
17.11 746.567078
17.12 748.151001
17.13 753.287964
17.14 764.152832
17.15 769.266113
17.16 762.724304
17.17 761.501648
17.18 762.797913
17.19 766.285461
17.20 767.80603
17.21 772.564575
17.22 770.797424
17.23 766.46814
17.24 770.354675
17.25 775.16449
17.26 776.479248
17.27 774.462036
17.28 768.137024
17.29 762.371033
17.30 758.402161
17.31 761.58606
17.32 761.603821
17.33 759.178162
17.34 759.254395
17.35 759.959106
17.36 765.249756
17.37 775.46582
17.38 782.469971
17.39 786.462524
17.40 786.121643
17.41 784.12323
17.42 781.339661
17.43 782.087036
17.44 782.444397
17.45 791.049683
17.46 795.238708
17.47 795.483521
17.48 785.236389
17.49 776.128967
17.50 780.305481
17.51 781.276001
17.52 785.601746
17.53 783.68219
17.54 782.348816
17.55 787.157898
17.56 790.35907
17.57 784.69812
17.58 784.137695
17.59 788.913635
17.60 788.672119
17.61 785.207642
17.62 789.55957
17.63 799.667419
17.64 800.970276
17.65 799.930664
17.66 802.049927
17.67 797.743225
17.68 785.82251
17.69 785.457825
17.70 793.042908
17.71 797.187561
17.72 797.457581
17.73 786.580505
17.74 781.223511
17.75 783.473999
17.76 792.649597
17.77 797.023254
17.78 791.260132
17.79 798.890381
17.80 808.962891
17.81 804.559998
17.82 807.914063
17.83 815.122375
17.84 813.703369
17.85 807.516663
17.86 806.161377
17.87 808.9823
17.88 810.746826
17.89 805.846375
17.90 795.170166
17.91 789.922913
17.92 795.464966
17.93 812.034424
17.94 814.373047
17.95 819.465515
17.96 821.762817
17.97 810.459473
17.98 806.869812
17.99 810.256836
18.00 816.322693
18.01 817.13031
18.02 812.732788
18.03 805.567078
18.04 802.588074
18.05 810.68103
18.06 813.546936
18.07 817.757507
18.08 828.214233
18.09 832.307617
18.10 829.177246
18.11 825.019104
18.12 822.889648
18.13 820.228088
18.14 824.753723
18.15 815.639282
18.16 810.114319
18.17 822.464661
18.18 833.257996
18.19 834.800293
18.20 844.511963
18.21 850.060303
18.22 848.971252
18.23 841.722473
18.24 840.52948
18.25 845.092407
18.26 843.156433
18.27 847.380432
18.28 848.422241
18.29 844.668457
18.30 845.390015
18.31 847.327454
18.32 846.360962
18.33 842.394409
18.34 844.458618
18.35 843.02533
18.36 844.120789
18.37 841.748535
18.38 834.440552
18.39 840.890198
18.40 837.100098
18.41 835.534851
18.42 851.406677
18.43 859.027283
18.44 866.896301
18.45 879.518555
18.46 879.744141
18.47 869.153015
18.48 859.445007
18.49 854.733643
18.50 851.870544
18.51 844.868347
18.52 847.99585
18.53 862.477417
18.54 873.259155
18.55 867.98938
18.56 855.503052
18.57 853.113647
18.58 856.633484
18.59 857.554199
18.60 861.39856
18.61 859.378784
18.62 855.744751
18.63 855.351318
18.64 859.22583
18.65 860.091614
18.66 855.51239
18.67 862.008179
18.68 870.144958
18.69 877.617737
18.70 869.985779
18.71 864.576416
18.72 863.648193
18.73 859.526855
18.74 871.001526
18.75 884.002441
18.76 884.930664
18.77 869.151123
18.78 859.061646
18.79 863.568298
18.80 874.066589
18.81 872.328979
18.82 866.865295
18.83 878.000183
18.84 889.025635
18.85 887.834045
18.86 889.935669
18.87 885.151367
18.88 881.619019
18.89 894.712158
18.90 895.920227
18.91 895.665161
18.92 897.773682
18.93 891.665527
18.94 894.36676
18.95 903.392883
18.96 907.128967
18.97 900.808655
18.98 903.351074
18.99 897.866272
19.00 891.852783
19.01 900.483704
19.02 905.583679
19.03 903.295959
19.04 895.941345
19.05 895.521545
19.06 905.077637
19.07 904.206543
19.08 902.169678
19.09 903.494812
19.10 912.763611
19.11 927.620789
19.12 924.896179
19.13 926.225586
19.14 928.975769
19.15 920.328491
19.16 912.269165
19.17 903.711487
19.18 909.126526
19.19 912.60498
19.20 910.773682
19.21 903.244995
19.22 902.001709
19.23 909.447144
19.24 908.692383
19.25 910.631653
19.26 919.416382
19.27 926.473938
19.28 918.659912
19.29 920.483643
19.30 930.154541
19.31 926.684387
19.32 924.274963
19.33 929.9599
19.34 924.840759
19.35 930.481689
19.36 933.475159
19.37 923.123657
19.38 927.705017
19.39 926.274719
19.40 917.984619
19.41 912.834229
19.42 919.000854
19.43 928.796204
19.44 932.808838
19.45 934.64032
19.46 943.446838
19.47 947.196228
19.48 943.622925
19.49 940.88678
19.50 938.207581
19.51 944.606506
19.52 950.370911
19.53 950.218567
19.54 949.513611
19.55 953.240356
19.56 953.185547
19.57 957.193787
19.58 966.635986
19.59 961.470825
19.60 949.526794
19.61 943.505554
19.62 932.388977
19.63 938.421448
19.64 951.22583
19.65 949.739014
19.66 959.425537
19.67 969.953247
19.68 968.190613
19.69 961.62146
19.70 962.543884
19.71 958.085999
19.72 961.590515
19.73 969.880249
19.74 968.825989
19.75 976.70105
19.76 974.298218
19.77 969.994202
19.78 966.477722
19.79 963.80011
19.80 970.076599
19.81 975.321472
19.82 978.837646
19.83 975.592041
19.84 973.030029
19.85 981.263367
19.86 994.794739
19.87 1008.819214
19.88 1015.588989
19.89 1010.011963
19.90 1011.730652
19.91 1021.18219
19.92 1017.789429
19.93 1001.704895
19.94 992.193909
19.95 993.702881
19.96 997.200195
19.97 996.166016
19.98 995.300598
19.99 988.40033
20.00 984.240845
