!@!!GADDS PLOTSO FILE: Chi integration type
!@!!Title/SampleName: ML_MAPbX3
!@!!User: NREL
!@!!Site: NREL SERF C211; SN 2510
!@!!Frame: 081022_MLProject_000_009.gfrm
!@!!Wavelengths    1.54184   1.54056   1.54439
!@!!Frame angles: 2Theta: 28.000 Omega: 5.000 Phi: 0.000 Chi: 90.000
!@!!Integration range: 2Theta: 10.000 to 40.000  Gamma: -100.000 to -80.000
!@!!Integration method: bin normalized
!@!N
!@!SS
!@!M
!@!L 0.0 0.0 0.0 0.0
!@!XDegrees
!@!YCounts
10.00 198.144043
10.02 216.752518
10.04 208.19632
10.06 217.259735
10.08 215.58255
10.10 193.880005
10.12 195.606125
10.14 216.526611
10.16 231.48909
10.18 220.838104
10.20 211.660858
10.22 216.43309
10.24 213.832306
10.26 215.806732
10.28 217.447845
10.30 220.193558
10.32 219.306885
10.34 220.97287
10.36 217.446182
10.38 225.503998
10.40 210.746857
10.42 212.701172
10.44 203.848938
10.46 232.200714
10.48 227.119354
10.50 219.731262
10.52 216.37149
10.54 225.252243
10.56 224.818573
10.58 198.358063
10.60 212.961105
10.62 218.173721
10.64 230.93544
10.66 220.286148
10.68 222.761642
10.70 261.703796
10.72 242.120865
10.74 232.757889
10.76 231.016403
10.78 213.606903
10.80 213.560471
10.82 232.137772
10.84 226.675125
10.86 234.213501
10.88 234.749344
10.90 227.605362
10.92 220.7285
10.94 221.403625
10.96 219.152756
10.98 220.354492
11.00 234.659912
11.02 249.035355
11.04 235.615891
11.06 238.48764
11.08 230.623581
11.10 251.904495
11.12 249.478806
11.14 250.300507
11.16 257.527771
11.18 252.576462
11.20 245.343475
11.22 250.305664
11.24 247.429443
11.26 244.704727
11.28 251.177048
11.30 236.087082
11.32 246.872971
11.34 253.162338
11.36 260.55838
11.38 239.673416
11.40 233.587402
11.42 244.744019
11.44 227.834091
11.46 270.316589
11.48 261.273651
11.50 247.736786
11.52 245.051559
11.54 250.50531
11.56 232.332199
11.58 238.307648
11.60 242.762329
11.62 243.902863
11.64 238.097458
11.66 251.60321
11.68 265.930481
11.70 241.225555
11.72 252.317963
11.74 251.846024
11.76 256.920593
11.78 244.789612
11.80 269.217926
11.82 248.561661
11.84 239.13623
11.86 270.271606
11.88 260.90686
11.90 267.840973
11.92 267.268677
11.94 263.497437
11.96 254.408951
11.98 252.425064
12.00 268.567841
12.02 262.42099
12.04 265.172333
12.06 270.603027
12.08 270.377594
12.10 293.635468
12.12 286.2005
12.14 296.757904
12.16 299.828339
12.18 295.980682
12.20 290.528046
12.22 300.795776
12.24 297.084961
12.26 312.172913
12.28 304.548065
12.30 318.486603
12.32 327.051361
12.34 337.709259
12.36 319.802094
12.38 319.012512
12.40 331.017242
12.42 323.275635
12.44 333.825714
12.46 341.342621
12.48 344.225464
12.50 349.004028
12.52 348.310974
12.54 372.674835
12.56 371.305054
12.58 363.453827
12.60 376.979004
12.62 358.155609
12.64 364.453308
12.66 362.931671
12.68 366.039124
12.70 345.883972
12.72 335.70108
12.74 335.410828
12.76 332.643463
12.78 337.776642
12.80 331.085724
12.82 311.14151
12.84 295.751984
12.86 321.640778
12.88 332.563782
12.90 314.009766
12.92 303.913635
12.94 300.139008
12.96 303.652588
12.98 295.77774
13.00 294.443207
13.02 292.11673
13.04 286.827454
13.06 297.516937
13.08 292.894653
13.10 294.866486
13.12 284.69812
13.14 274.194397
13.16 285.691711
13.18 299.990601
13.20 296.358795
13.22 303.297913
13.24 278.500854
13.26 284.880707
13.28 277.007843
13.30 288.149017
13.32 297.247223
13.34 289.967346
13.36 280.428009
13.38 269.768158
13.40 289.367462
13.42 291.037781
13.44 297.410767
13.46 287.285706
13.48 277.064209
13.50 290.662872
13.52 282.752106
13.54 299.113373
13.56 297.298279
13.58 282.258636
13.60 268.350311
13.62 282.496521
13.64 282.358215
13.66 284.208282
13.68 306.83075
13.70 311.809631
13.72 294.747375
13.74 294.070313
13.76 308.237976
13.78 312.657715
13.80 301.753021
13.82 297.98114
13.84 291.797028
13.86 298.22113
13.88 316.419708
13.90 315.287415
13.92 298.890167
13.94 299.153351
13.96 322.395569
13.98 325.94696
14.00 328.198486
14.02 325.109924
14.04 313.113312
14.06 306.340973
14.08 314.70874
14.10 298.927917
14.12 313.880676
14.14 320.908875
14.16 324.28421
14.18 312.201385
14.20 328.672577
14.22 324.080872
14.24 309.123596
14.26 302.588715
14.28 318.914154
14.30 313.406891
14.32 316.038727
14.34 313.241852
14.36 323.513428
14.38 327.603729
14.40 334.995026
14.42 342.074158
14.44 328.759949
14.46 323.319244
14.48 340.885864
14.50 336.898651
14.52 335.47168
14.54 355.561829
14.56 385.041016
14.58 363.804993
14.60 343.621796
14.62 363.028717
14.64 377.921722
14.66 394.168549
14.68 404.238098
14.70 414.648102
14.72 440.938446
14.74 443.315155
14.76 448.656738
14.78 460.440033
14.80 474.987701
14.82 503.985718
14.84 522.062256
14.86 552.990601
14.88 579.550537
14.90 565.191956
14.92 598.80835
14.94 613.736694
14.96 668.415955
14.98 722.05603
15.00 761.467651
15.02 808.089478
15.04 850.821533
15.06 897.06781
15.08 930.926208
15.10 992.672424
15.12 1013.82312
15.14 1014.727417
15.16 1050.303345
15.18 1095.177856
15.20 1069.92688
15.22 1086.78833
15.24 1061.226318
15.26 1007.635986
15.28 960.224915
15.30 916.859253
15.32 853.455383
15.34 795.585938
15.36 734.810669
15.38 637.44635
15.40 594.283264
15.42 548.547668
15.44 497.988495
15.46 482.886108
15.48 468.529694
15.50 446.097748
15.52 410.909119
15.54 397.189911
15.56 397.476624
15.58 378.28595
15.60 384.212402
15.62 390.984985
15.64 378.348755
15.66 366.436829
15.68 346.190765
15.70 357.468933
15.72 359.091125
15.74 376.097687
15.76 367.481415
15.78 382.938354
15.80 366.404694
15.82 359.489502
15.84 352.742462
15.86 366.231567
15.88 364.370636
15.90 363.936127
15.92 362.447571
15.94 338.674316
15.96 338.221771
15.98 365.024292
16.00 352.119934
16.02 351.928253
16.04 357.797577
16.06 347.507111
16.08 352.591705
16.10 350.606384
16.12 345.723663
16.14 352.858093
16.16 337.552979
16.18 356.333282
16.20 374.035156
16.22 377.251068
16.24 365.192322
16.26 351.11319
16.28 341.963928
16.30 342.599213
16.32 348.18338
16.34 354.220276
16.36 348.2771
16.38 333.483734
16.40 343.955139
16.42 351.597778
16.44 352.638428
16.46 353.928131
16.48 351.986542
16.50 341.80722
16.52 347.700378
16.54 334.090546
16.56 353.554047
16.58 371.668579
16.60 360.828918
16.62 334.508545
16.64 344.93396
16.66 363.356903
16.68 340.122437
16.70 349.30365
16.72 369.491852
16.74 353.828278
16.76 361.375824
16.78 361.572266
16.80 345.568359
16.82 361.581818
16.84 369.156799
16.86 382.834808
16.88 375.10376
16.90 370.717346
16.92 355.583466
16.94 358.060303
16.96 366.608917
16.98 368.722137
17.00 369.051056
17.02 371.460388
17.04 376.43866
17.06 369.974823
17.08 388.640167
17.10 381.400909
17.12 365.527771
17.14 374.526184
17.16 373.161804
17.18 367.07016
17.20 354.857819
17.22 359.892395
17.24 369.154877
17.26 403.326569
17.28 406.188751
17.30 381.616638
17.32 387.963104
17.34 393.266113
17.36 369.264496
17.38 383.647522
17.40 376.860291
17.42 374.018585
17.44 380.952606
17.46 392.237244
17.48 389.649231
17.50 387.799286
17.52 398.259155
17.54 405.189758
17.56 398.173645
17.58 374.687714
17.60 354.375092
17.62 374.65097
17.64 381.631836
17.66 371.358887
17.68 377.44516
17.70 395.144653
17.72 380.680908
17.74 357.672607
17.76 383.762085
17.78 408.247284
17.80 403.135895
17.82 387.528229
17.84 387.64743
17.86 395.920074
17.88 399.054871
17.90 388.931458
17.92 387.8815
17.94 403.276031
17.96 399.65274
17.98 395.646179
18.00 403.269043
18.02 401.34259
18.04 400.648834
18.06 420.594788
18.08 425.29306
18.10 410.127167
18.12 419.338531
18.14 404.313354
18.16 401.261536
18.18 400.404755
18.20 400.74115
18.22 407.810211
18.24 396.844666
18.26 411.654175
18.28 427.51355
18.30 401.820465
18.32 394.204803
18.34 409.753906
18.36 406.2612
18.38 407.396515
18.40 407.790314
18.42 418.446167
18.44 419.326813
18.46 425.772552
18.48 439.415985
18.50 432.661377
18.52 438.416748
18.54 429.88736
18.56 425.642975
18.58 431.501556
18.60 424.960571
18.62 429.021332
18.64 416.074005
18.66 432.493896
18.68 425.904419
18.70 422.594086
18.72 441.965118
18.74 444.386688
18.76 427.314819
18.78 420.940338
18.80 448.631317
18.82 448.83136
18.84 445.968323
18.86 437.162933
18.88 449.612671
18.90 438.539368
18.92 431.287598
18.94 443.261322
18.96 446.273682
18.98 428.343262
19.00 428.782471
19.02 440.125946
19.04 439.656525
19.06 443.062103
19.08 460.761139
19.10 457.474915
19.12 440.359131
19.14 451.394897
19.16 464.684631
19.18 479.510437
19.20 471.341431
19.22 475.067749
19.24 479.822968
19.26 467.098846
19.28 468.686188
19.30 461.495758
19.32 467.188171
19.34 461.709625
19.36 475.139221
19.38 465.190094
19.40 461.597687
19.42 466.287476
19.44 459.454193
19.46 453.054993
19.48 467.680542
19.50 454.005798
19.52 450.539978
19.54 451.240784
19.56 459.161072
19.58 475.222626
19.60 490.348328
19.62 470.968994
19.64 457.632996
19.66 461.682007
19.68 473.703094
19.70 471.945526
19.72 501.520294
19.74 486.353149
19.76 461.694
19.78 465.401794
19.80 481.762848
19.82 471.982056
19.84 463.326111
19.86 497.072845
19.88 496.230133
19.90 493.966217
19.92 475.679504
19.94 504.229553
19.96 497.425446
19.98 488.830994
20.00 504.205688
20.02 506.126953
20.04 510.993744
20.06 502.498352
20.08 509.141418
20.10 505.838318
20.12 506.259674
20.14 493.302002
20.16 501.837158
20.18 503.676544
20.20 509.754303
20.22 511.410522
20.24 502.789948
20.26 513.616089
20.28 509.53479
20.30 502.903534
20.32 519.645935
20.34 514.311218
20.36 523.074646
20.38 509.942627
20.40 507.233887
20.42 501.938629
20.44 500.190155
20.46 513.710327
20.48 522.298523
20.50 513.872681
20.52 527.269043
20.54 536.300354
20.56 526.229065
20.58 506.026703
20.60 519.659668
20.62 520.571838
20.64 526.758301
20.66 543.024292
20.68 536.730286
20.70 531.331909
20.72 526.589111
20.74 534.447571
20.76 546.377075
20.78 562.65918
20.80 537.729675
20.82 531.767517
20.84 542.623108
20.86 537.37085
20.88 552.829041
20.90 557.736328
20.92 554.095276
20.94 551.014221
20.96 542.747375
20.98 554.601013
21.00 551.204834
21.02 555.837219
21.04 523.853088
21.06 552.502869
21.08 562.009033
21.10 551.951599
21.12 536.136414
21.14 535.114136
21.16 556.022461
21.18 567.982544
21.20 555.215454
21.22 569.350037
21.24 581.238586
21.26 577.832214
21.28 584.632141
21.30 581.260681
21.32 619.023743
21.34 612.560364
21.36 619.278809
21.38 640.24408
21.40 648.944153
21.42 638.520813
21.44 631.99707
21.46 624.732483
21.48 628.97052
21.50 636.416199
21.52 630.203369
21.54 657.306519
21.56 641.007202
21.58 664.827332
21.60 659.718323
21.62 651.10675
21.64 643.774597
21.66 650.88501
21.68 640.896118
21.70 630.53717
21.72 613.737061
21.74 606.252441
21.76 599.15094
21.78 617.19043
21.80 618.011169
21.82 614.447998
21.84 590.916016
21.86 611.368225
21.88 624.798157
21.90 607.217102
21.92 586.41449
21.94 599.822998
21.96 600.94574
21.98 611.217957
22.00 601.313232
22.02 609.527893
22.04 610.25238
22.06 606.35199
22.08 597.55188
22.10 605.261719
22.12 607.626831
22.14 592.195129
22.16 592.691711
22.18 599.681335
22.20 597.559692
22.22 608.016663
22.24 623.101074
22.26 629.715454
22.28 630.353577
22.30 610.202942
22.32 613.990906
22.34 596.262329
22.36 597.71582
22.38 618.53125
22.40 630.860229
22.42 638.322815
22.44 611.227356
22.46 621.671387
22.48 625.970825
22.50 620.378174
22.52 624.072998
22.54 636.174866
22.56 623.160583
22.58 648.304382
22.60 654.556641
22.62 635.307617
22.64 641.224976
22.66 649.37793
22.68 638.989075
22.70 620.396912
22.72 631.681274
22.74 633.478577
22.76 623.055115
22.78 633.348145
22.80 610.164856
22.82 619.405518
22.84 634.541809
22.86 644.397644
22.88 642.706177
22.90 645.206177
22.92 636.92157
22.94 647.378113
22.96 674.158264
22.98 677.40863
23.00 668.376221
23.02 653.626282
23.04 648.689331
23.06 638.242798
23.08 659.062317
23.10 664.026001
23.12 667.62207
23.14 671.469543
23.16 651.827759
23.18 636.144348
23.20 637.782043
23.22 627.836975
23.24 640.313477
23.26 651.02832
23.28 670.241272
23.30 663.802795
23.32 661.093445
23.34 649.000183
23.36 649.187927
23.38 652.878601
23.40 647.876465
23.42 625.927917
23.44 646.592407
23.46 632.783264
23.48 642.982544
23.50 647.839172
23.52 654.231262
23.54 654.365601
23.56 648.644592
23.58 639.97406
23.60 640.514893
23.62 636.663757
23.64 639.343872
23.66 639.155701
23.68 639.994202
23.70 627.895569
23.72 635.13501
23.74 651.723022
23.76 668.884644
23.78 683.411438
23.80 674.996155
23.82 652.704346
23.84 647.90387
23.86 655.314453
23.88 650.265808
23.90 653.630066
23.92 660.328552
23.94 655.536011
23.96 620.113953
23.98 631.964355
24.00 653.014404
24.02 671.395081
24.04 660.80304
24.06 661.518555
24.08 665.129272
24.10 675.363708
24.12 661.485229
24.14 650.987427
24.16 653.060059
24.18 660.944641
24.20 666.039795
24.22 659.071777
24.24 659.474243
24.26 658.888
24.28 656.369019
24.30 671.247131
24.32 692.161072
24.34 664.7276
24.36 659.324829
24.38 676.861389
24.40 679.31958
24.42 672.789368
24.44 661.062134
24.46 640.967896
24.48 655.212097
24.50 678.799316
24.52 661.673157
24.54 661.297546
24.56 662.00531
24.58 660.517273
24.60 665.979553
24.62 645.059692
24.64 637.577759
24.66 643.191711
24.68 650.104614
24.70 670.106506
24.72 680.12085
24.74 654.15918
24.76 654.80127
24.78 649.76062
24.80 639.236328
24.82 657.552979
24.84 660.898438
24.86 658.828735
24.88 638.749756
24.90 654.194336
24.92 667.23938
24.94 687.533325
24.96 668.610901
24.98 666.914734
25.00 668.388855
25.02 670.284912
25.04 664.713257
25.06 685.53833
25.08 668.894836
25.10 667.275391
25.12 650.267761
25.14 655.628906
25.16 661.235901
25.18 654.123718
25.20 658.513611
25.22 669.791504
25.24 677.140076
25.26 678.645142
25.28 670.312073
25.30 670.638367
25.32 672.559143
25.34 659.339722
25.36 663.135437
25.38 666.422302
25.40 680.657593
25.42 666.06488
25.44 659.722717
25.46 661.448547
25.48 660.431946
25.50 665.998962
25.52 664.333008
25.54 682.855713
25.56 669.214417
25.58 664.782532
25.60 664.956299
25.62 674.173889
25.64 669.038757
25.66 669.46051
25.68 682.174072
25.70 678.228455
25.72 667.633362
25.74 676.907715
25.76 678.787048
25.78 663.383728
25.80 658.080444
25.82 658.083008
25.84 652.020447
25.86 657.966064
25.88 686.11084
25.90 688.723633
25.92 696.703003
25.94 698.485962
25.96 674.997925
25.98 643.543335
26.00 638.35968
26.02 648.721069
26.04 661.767639
26.06 644.268494
26.08 640.675232
26.10 640.761353
26.12 672.485168
26.14 687.930237
26.16 674.406738
26.18 649.747681
26.20 647.218506
26.22 644.185547
26.24 650.896851
26.26 666.173828
26.28 653.358704
26.30 658.576721
26.32 659.890381
26.34 650.807068
26.36 647.74176
26.38 654.747742
26.40 653.698059
26.42 664.805603
26.44 653.205872
26.46 640.379333
26.48 640.235046
26.50 637.053406
26.52 664.256714
26.54 678.927185
26.56 674.192993
26.58 690.445679
26.60 691.467773
26.62 663.12915
26.64 671.273315
26.66 659.057495
26.68 625.890869
26.70 645.041138
26.72 662.228149
26.74 651.229614
26.76 648.904785
26.78 634.247986
26.80 630.273438
26.82 643.689148
26.84 646.46991
26.86 633.806946
26.88 655.731506
26.90 658.337646
26.92 660.527222
26.94 646.650696
26.96 654.782959
26.98 664.385681
27.00 617.057373
27.02 626.161255
27.04 649.109802
27.06 634.494812
27.08 628.954224
27.10 656.997742
27.12 669.340698
27.14 667.333435
27.16 646.702698
27.18 638.31311
27.20 644.460205
27.22 666.370972
27.24 655.585327
27.26 666.821533
27.28 665.689331
27.30 637.802429
27.32 646.403381
27.34 635.071045
27.36 651.579895
27.38 662.055969
27.40 658.18512
27.42 651.442566
27.44 653.615417
27.46 656.286072
27.48 645.865051
27.50 641.003113
27.52 636.384827
27.54 647.149109
27.56 647.681335
27.58 654.343445
27.60 638.895508
27.62 630.794067
27.64 627.373535
27.66 655.164917
27.68 644.992371
27.70 653.248474
27.72 639.876587
27.74 642.155273
27.76 648.163452
27.78 648.158508
27.80 648.882751
27.82 653.232483
27.84 660.523376
27.86 655.505493
27.88 642.122681
27.90 640.289063
27.92 634.890747
27.94 642.718933
27.96 653.608643
27.98 646.337952
28.00 636.997681
28.02 647.563843
28.04 665.130798
28.06 644.284973
28.08 639.452454
28.10 618.24176
28.12 627.723694
28.14 651.661072
28.16 642.232788
28.18 626.59021
28.20 627.567993
28.22 630.850952
28.24 637.872314
28.26 641.099243
28.28 644.55365
28.30 650.103638
28.32 650.090393
28.34 649.893799
28.36 652.141907
28.38 633.376221
28.40 620.489807
28.42 629.032166
28.44 632.15448
28.46 645.317932
28.48 645.606506
28.50 647.0625
28.52 643.13385
28.54 624.905273
28.56 642.354126
28.58 630.872009
28.60 622.563293
28.62 630.759827
28.64 626.099121
28.66 622.836304
28.68 631.45575
28.70 639.193481
28.72 630.161987
28.74 623.816589
28.76 645.996033
28.78 634.705139
28.80 625.62323
28.82 638.716431
28.84 624.351196
28.86 612.101685
28.88 602.181763
28.90 634.535156
28.92 677.763062
28.94 656.426819
28.96 622.720703
28.98 637.139587
29.00 637.855347
29.02 635.395813
29.04 633.916199
29.06 632.874939
29.08 636.615356
29.10 636.654785
29.12 605.867371
29.14 609.561279
29.16 606.49585
29.18 602.491516
29.20 607.929932
29.22 622.977478
29.24 629.987915
29.26 627.852722
29.28 623.557373
29.30 629.096802
29.32 629.682617
29.34 622.068848
29.36 615.782837
29.38 608.775574
29.40 622.264343
29.42 614.795105
29.44 614.403748
29.46 619.504822
29.48 630.195129
29.50 624.346069
29.52 634.236938
29.54 625.205933
29.56 629.461365
29.58 615.006958
29.60 611.802185
29.62 618.076355
29.64 615.553528
29.66 615.761719
29.68 628.696899
29.70 645.22583
29.72 634.649292
29.74 613.453064
29.76 593.872192
29.78 611.352051
29.80 617.90918
29.82 616.290283
29.84 612.48822
29.86 633.576599
29.88 633.072021
29.90 625.716187
29.92 610.338806
29.94 614.8396
29.96 625.07019
29.98 640.655457
30.00 628.128052
30.02 633.490417
30.04 613.617676
30.06 632.181396
30.08 632.074219
30.10 615.937195
30.12 630.934937
30.14 657.011536
30.16 654.383179
30.18 647.549622
30.20 643.077026
30.22 650.924072
30.24 663.161499
30.26 654.005188
30.28 663.785645
30.30 672.16925
30.32 683.058472
30.34 681.63269
30.36 686.261169
30.38 694.790161
30.40 709.956177
30.42 718.142395
30.44 709.621277
30.46 728.509277
30.48 767.079834
30.50 791.982056
30.52 791.219055
30.54 814.124207
30.56 861.341431
30.58 878.742737
30.60 885.867676
30.62 888.730896
30.64 916.969238
30.66 908.39093
30.68 926.901733
30.70 936.567871
30.72 899.92749
30.74 880.098022
30.76 866.602478
30.78 853.867126
30.80 832.869629
30.82 814.174561
30.84 795.201172
30.86 792.433533
30.88 758.076904
30.90 728.485657
30.92 723.536072
30.94 716.408142
30.96 696.08905
30.98 672.980164
31.00 654.90332
31.02 653.165833
31.04 653.66925
31.06 646.727112
31.08 634.341797
31.10 627.357727
31.12 609.586304
31.14 632.226318
31.16 640.849243
31.18 618.395386
31.20 615.719482
31.22 612.58136
31.24 611.979919
31.26 617.309143
31.28 613.548706
31.30 626.024414
31.32 625.390381
31.34 625.257813
31.36 613.329041
31.38 629.189697
31.40 604.811401
31.42 602.440674
31.44 591.568542
31.46 594.736938
31.48 592.205994
31.50 595.482178
31.52 610.401611
31.54 602.875732
31.56 596.452209
31.58 573.660828
31.60 558.399902
31.62 588.111328
31.64 596.128967
31.66 588.151428
31.68 582.578552
31.70 591.038635
31.72 581.803101
31.74 582.377869
31.76 583.932007
31.78 580.462646
31.80 577.698547
31.82 579.089539
