!@!!GADDS PLOTSO FILE: Chi integration type
!@!!Title/SampleName: ML_MAPbX3
!@!!User: NREL
!@!!Site: NREL SERF C211; SN 2510
!@!!Frame: 081022_MLProject_000_019.gfrm
!@!!Wavelengths    1.54184   1.54056   1.54439
!@!!Frame angles: 2Theta: 28.000 Omega: 5.000 Phi: 0.000 Chi: 90.000
!@!!Integration range: 2Theta: 10.000 to 41.100  Gamma: -120.400 to -60.400
!@!!Integration method: bin normalized
!@!N
!@!SS
!@!M
!@!L 0.0 0.0 0.0 0.0
!@!XDegrees
!@!YCounts
10.00 192.204437
10.01 195.771637
10.02 192.384018
10.03 180.254715
10.04 182.61084
10.05 187.694717
10.06 184.899933
10.07 188.370712
10.08 189.923111
10.09 181.702988
10.10 180.346436
10.11 189.271698
10.12 193.760818
10.13 197.619324
10.14 203.076904
10.15 203.175201
10.16 197.236099
10.17 189.57814
10.18 189.713623
10.19 192.421097
10.20 201.51564
10.21 211.268005
10.22 206.420303
10.23 196.82724
10.24 195.032074
10.25 195.739716
10.26 193.661179
10.27 199.567978
10.28 198.052505
10.29 192.889496
10.30 197.240387
10.31 197.638763
10.32 199.722275
10.33 207.653976
10.34 205.986267
10.35 197.803101
10.36 195.253235
10.37 192.227753
10.38 192.35025
10.39 196.303268
10.40 193.985733
10.41 192.309158
10.42 188.213837
10.43 188.371658
10.44 194.934433
10.45 205.809982
10.46 212.200363
10.47 216.632965
10.48 215.177704
10.49 213.599915
10.50 217.413742
10.51 208.126999
10.52 199.088028
10.53 197.675613
10.54 189.401718
10.55 186.903503
10.56 190.43129
10.57 186.674164
10.58 189.380127
10.59 193.534897
10.60 189.988113
10.61 184.580276
10.62 191.560287
10.63 200.466232
10.64 200.710678
10.65 201.603607
10.66 196.548141
10.67 195.162643
10.68 200.292801
10.69 203.541977
10.70 205.505981
10.71 210.43277
10.72 216.764328
10.73 214.311386
10.74 212.044907
10.75 201.070267
10.76 188.062653
10.77 187.433517
10.78 188.057922
10.79 191.93428
10.80 193.036102
10.81 200.751205
10.82 206.852509
10.83 214.992966
10.84 223.290176
10.85 219.048721
10.86 217.102905
10.87 218.580338
10.88 222.671692
10.89 214.569901
10.90 207.31395
10.91 207.90892
10.92 204.65451
10.93 208.170425
10.94 209.890091
10.95 206.419968
10.96 208.541245
10.97 209.12645
10.98 202.686569
10.99 203.808914
11.00 209.659607
11.01 208.268692
11.02 207.595337
11.03 208.055298
11.04 202.639542
11.05 204.595016
11.06 209.265442
11.07 209.693924
11.08 215.139313
11.09 218.662064
11.10 221.635406
11.11 221.16507
11.12 215.84465
11.13 211.648529
11.14 211.939651
11.15 213.54895
11.16 218.80043
11.17 226.384033
11.18 223.851822
11.19 222.302368
11.20 221.377213
11.21 215.993851
11.22 215.918457
11.23 214.889771
11.24 212.192215
11.25 212.183685
11.26 220.517609
11.27 219.347351
11.28 209.7733
11.29 216.53894
11.30 222.582062
11.31 218.093567
11.32 212.55603
11.33 209.858932
11.34 214.249084
11.35 216.386551
11.36 221.650513
11.37 221.857025
11.38 215.200836
11.39 212.260696
11.40 215.662064
11.41 227.089478
11.42 232.472626
11.43 225.797043
11.44 214.294617
11.45 217.423813
11.46 218.597488
11.47 214.322174
11.48 214.823166
11.49 220.294128
11.50 220.675476
11.51 222.52626
11.52 229.405396
11.53 226.306091
11.54 226.569199
11.55 226.966278
11.56 214.860947
11.57 208.563385
11.58 210.579514
11.59 214.94371
11.60 224.310898
11.61 230.924789
11.62 226.786285
11.63 228.05983
11.64 230.762375
11.65 232.01268
11.66 231.985138
11.67 231.624802
11.68 235.452942
11.69 231.888382
11.70 231.408859
11.71 228.454361
11.72 225.643219
11.73 233.297867
11.74 243.328568
11.75 248.733688
11.76 241.374344
11.77 234.777588
11.78 230.52095
11.79 227.034531
11.80 222.739166
11.81 224.179214
11.82 234.708542
11.83 234.705948
11.84 225.71521
11.85 219.159409
11.86 214.461899
11.87 213.871811
11.88 223.045013
11.89 227.950821
11.90 232.558426
11.91 233.641602
11.92 235.403229
11.93 240.673569
11.94 236.569977
11.95 234.540466
11.96 233.286713
11.97 231.744659
11.98 233.07164
11.99 235.820679
12.00 245.924255
12.01 246.621658
12.02 247.121536
12.03 242.918823
12.04 231.753159
12.05 231.463058
12.06 231.588074
12.07 233.15477
12.08 235.504013
12.09 234.398056
12.10 234.639694
12.11 232.891281
12.12 232.763458
12.13 239.416199
12.14 240.617432
12.15 236.284805
12.16 240.099106
12.17 241.021042
12.18 239.481522
12.19 239.552368
12.20 243.084351
12.21 244.422073
12.22 247.507797
12.23 249.859741
12.24 248.983017
12.25 252.800217
12.26 253.193588
12.27 251.471039
12.28 250.851517
12.29 250.74321
12.30 251.393402
12.31 254.600006
12.32 259.60968
12.33 257.660492
12.34 255.203018
12.35 258.489014
12.36 256.499634
12.37 253.831589
12.38 257.164276
12.39 260.887665
12.40 260.696411
12.41 256.709412
12.42 253.954376
12.43 255.563293
12.44 259.42041
12.45 262.987305
12.46 263.943542
12.47 264.27121
12.48 268.032227
12.49 268.407074
12.50 275.173248
12.51 275.442078
12.52 268.119415
12.53 265.542114
12.54 260.986938
12.55 260.005981
12.56 262.781433
12.57 263.388458
12.58 260.457092
12.59 257.667755
12.60 265.481262
12.61 269.531799
12.62 269.179474
12.63 273.379395
12.64 275.888763
12.65 272.081329
12.66 263.303162
12.67 257.647217
12.68 259.366638
12.69 258.743866
12.70 261.932892
12.71 267.507385
12.72 266.475586
12.73 258.675781
12.74 256.147583
12.75 254.773758
12.76 256.089569
12.77 266.546295
12.78 270.664642
12.79 261.959717
12.80 264.975708
12.81 271.982117
12.82 279.871002
12.83 284.335266
12.84 279.313843
12.85 270.559814
12.86 269.622162
12.87 277.270538
12.88 276.11557
12.89 268.796875
12.90 265.929352
12.91 269.386261
12.92 272.096039
12.93 278.166626
12.94 280.992096
12.95 279.275665
12.96 281.383942
12.97 276.121796
12.98 273.159546
12.99 273.41507
13.00 273.714966
13.01 270.961121
13.02 274.981171
13.03 277.467743
13.04 274.892822
13.05 280.614014
13.06 276.858856
13.07 270.199371
13.08 273.015167
13.09 272.101929
13.10 269.889557
13.11 272.167999
13.12 272.18985
13.13 268.382233
13.14 259.834839
13.15 265.268158
13.16 269.845734
13.17 262.479065
13.18 267.607727
13.19 275.891815
13.20 280.77002
13.21 279.211578
13.22 275.03833
13.23 275.33432
13.24 271.862488
13.25 267.123138
13.26 269.710846
13.27 278.533051
13.28 281.497101
13.29 280.032837
13.30 280.635284
13.31 286.098663
13.32 289.848938
13.33 291.682068
13.34 290.111267
13.35 286.636566
13.36 282.0961
13.37 283.404968
13.38 286.461792
13.39 281.078766
13.40 278.467316
13.41 283.71344
13.42 282.26593
13.43 282.467407
13.44 275.335754
13.45 274.006104
13.46 284.958282
13.47 285.704956
13.48 279.794586
13.49 278.234253
13.50 285.004456
13.51 279.310455
13.52 277.151337
13.53 280.15564
13.54 270.889832
13.55 268.603912
13.56 273.277679
13.57 278.474335
13.58 283.197083
13.59 278.890625
13.60 275.629608
13.61 275.556213
13.62 277.713043
13.63 281.385223
13.64 282.916382
13.65 283.120087
13.66 278.702209
13.67 283.208282
13.68 282.016113
13.69 277.988586
13.70 283.872375
13.71 291.863464
13.72 293.735657
13.73 291.877838
13.74 291.956818
13.75 286.061829
13.76 280.230042
13.77 281.558289
13.78 286.481537
13.79 289.295288
13.80 292.270264
13.81 293.566559
13.82 288.910797
13.83 283.421265
13.84 278.910675
13.85 272.072144
13.86 270.364685
13.87 278.203583
13.88 282.791138
13.89 288.960327
13.90 292.026794
13.91 292.379303
13.92 297.74881
13.93 301.714874
13.94 295.20636
13.95 286.528198
13.96 278.16275
13.97 279.023468
13.98 282.689453
13.99 283.507751
14.00 281.434235
14.01 279.806671
14.02 283.468597
14.03 284.474365
14.04 285.774292
14.05 290.031097
14.06 288.610901
14.07 292.594666
14.08 293.694214
14.09 282.635803
14.10 277.68869
14.11 274.317963
14.12 272.047577
14.13 276.876678
14.14 285.314606
14.15 293.083466
14.16 299.787689
14.17 298.184601
14.18 296.552338
14.19 296.364502
14.20 286.720276
14.21 288.204926
14.22 290.256378
14.23 278.346619
14.24 279.592072
14.25 293.585846
14.26 298.77063
14.27 299.155334
14.28 299.160095
14.29 292.602692
14.30 282.900452
14.31 277.360626
14.32 280.077637
14.33 286.422882
14.34 294.170685
14.35 298.238953
14.36 297.913849
14.37 294.362915
14.38 292.413605
14.39 299.333466
14.40 305.476959
14.41 302.457275
14.42 298.652924
14.43 300.828156
14.44 302.978943
14.45 298.773682
14.46 298.036438
14.47 306.792938
14.48 308.619019
14.49 311.50769
14.50 308.574005
14.51 304.71524
14.52 301.556183
14.53 294.009125
14.54 296.246674
14.55 301.958252
14.56 307.725922
14.57 310.082825
14.58 303.06311
14.59 304.441437
14.60 306.843201
14.61 303.671021
14.62 304.490448
14.63 312.591766
14.64 318.032013
14.65 322.758972
14.66 319.222717
14.67 310.35202
14.68 318.199432
14.69 323.426117
14.70 321.352386
14.71 324.844849
14.72 333.113342
14.73 332.381287
14.74 327.987549
14.75 330.929596
14.76 339.345215
14.77 338.350464
14.78 336.467194
14.79 336.973969
14.80 335.671783
14.81 338.219482
14.82 341.922241
14.83 348.588348
14.84 360.915588
14.85 378.18576
14.86 378.55069
14.87 382.65979
14.88 384.352509
14.89 391.160553
14.90 389.703125
14.91 392.225586
14.92 393.918671
14.93 396.932281
14.94 409.522339
14.95 406.799011
14.96 396.642548
14.97 403.270233
14.98 420.716797
14.99 435.420807
15.00 442.889069
15.01 442.243713
15.02 458.008118
15.03 467.097137
15.04 475.106567
15.05 483.538055
15.06 499.575928
15.07 506.479828
15.08 514.879333
15.09 520.699036
15.10 530.243896
15.11 548.343201
15.12 564.862976
15.13 579.240356
15.14 581.881287
15.15 602.706726
15.16 624.144836
15.17 653.730896
15.18 671.223633
15.19 690.15564
15.20 689.800232
15.21 703.574768
15.22 710.570496
15.23 737.900085
15.24 764.292664
15.25 802.405762
15.26 837.980713
15.27 850.965515
15.28 861.194519
15.29 873.117676
15.30 881.248108
15.31 893.798645
15.32 921.642761
15.33 932.986572
15.34 948.755493
15.35 957.362793
15.36 975.040344
15.37 977.614258
15.38 982.940613
15.39 985.309143
15.40 996.878235
15.41 992.557007
15.42 972.721191
15.43 964.762573
15.44 943.939941
15.45 921.583008
15.46 916.520874
15.47 884.485474
15.48 863.550171
15.49 855.333252
15.50 846.217407
15.51 799.59729
15.52 787.251526
15.53 758.520325
15.54 729.70343
15.55 707.60968
15.56 699.745178
15.57 668.300354
15.58 641.825134
15.59 612.937561
15.60 589.560364
15.61 579.973389
15.62 560.222229
15.63 542.325562
15.64 526.161194
15.65 519.3396
15.66 509.672302
15.67 501.659851
15.68 485.812683
15.69 479.311035
15.70 468.522949
15.71 461.832672
15.72 450.243927
15.73 448.413666
15.74 441.88385
15.75 432.21817
15.76 425.501587
15.77 418.737885
15.78 417.783203
15.79 422.88797
15.80 426.623077
15.81 427.462921
15.82 426.034241
15.83 421.586975
15.84 417.982635
15.85 409.613953
15.86 406.22464
15.87 399.798309
15.88 392.899353
15.89 391.343964
15.90 394.695892
15.91 395.172119
15.92 389.966644
15.93 391.270966
15.94 389.632965
15.95 386.893066
15.96 382.777161
15.97 381.065674
15.98 380.941986
15.99 378.900879
16.00 377.680542
16.01 378.681366
16.02 374.161682
16.03 369.947754
16.04 368.396637
16.05 365.98407
16.06 364.211609
16.07 369.230713
16.08 370.989166
16.09 360.420837
16.10 358.687134
16.11 359.334106
16.12 352.962524
16.13 355.702728
16.14 361.850586
16.15 358.896301
16.16 351.509888
16.17 348.359467
16.18 353.787659
16.19 356.420166
16.20 352.938232
16.21 352.69223
16.22 351.578949
16.23 345.825409
16.24 343.686218
16.25 346.777527
16.26 348.834442
16.27 347.979034
16.28 346.076599
16.29 340.081055
16.30 337.402008
16.31 338.088257
16.32 333.474762
16.33 330.046265
16.34 330.047577
16.35 331.379089
16.36 332.621765
16.37 327.505615
16.38 326.422058
16.39 329.728607
16.40 328.155029
16.41 325.89447
16.42 325.792419
16.43 332.790527
16.44 338.294342
16.45 343.481567
16.46 337.310394
16.47 329.361359
16.48 331.667328
16.49 330.538177
16.50 330.861572
16.51 335.45343
16.52 341.5979
16.53 348.074799
16.54 351.509186
16.55 346.49704
16.56 342.047821
16.57 334.50293
16.58 339.076843
16.59 342.51001
16.60 340.447021
16.61 339.423157
16.62 335.031128
16.63 335.004059
16.64 339.281342
16.65 333.361023
16.66 335.037994
16.67 337.603424
16.68 332.454956
16.69 331.274445
16.70 335.057434
16.71 338.549255
16.72 338.014252
16.73 336.295685
16.74 336.335876
16.75 336.416901
16.76 347.221832
16.77 344.946777
16.78 334.41275
16.79 337.201508
16.80 330.024078
16.81 325.983368
16.82 326.367798
16.83 325.031372
16.84 328.844238
16.85 339.058319
16.86 351.834473
16.87 349.407043
16.88 336.210907
16.89 336.07428
16.90 333.970123
16.91 333.44574
16.92 334.76062
16.93 336.939148
16.94 336.168915
16.95 328.760345
16.96 325.419617
16.97 332.685181
16.98 340.204163
16.99 347.344055
17.00 345.195038
17.01 337.976318
17.02 339.391785
17.03 344.373627
17.04 345.189331
17.05 342.740784
17.06 343.386414
17.07 337.464661
17.08 337.03241
17.09 343.852478
17.10 342.995422
17.11 343.730347
17.12 347.781311
17.13 352.288757
17.14 360.429169
17.15 356.62738
17.16 348.276733
17.17 349.284821
17.18 348.663788
17.19 354.379364
17.20 359.20752
17.21 353.548401
17.22 344.215424
17.23 337.580444
17.24 330.469452
17.25 328.319122
17.26 334.027405
17.27 337.631653
17.28 339.288361
17.29 342.058624
17.30 344.98526
17.31 342.342072
17.32 346.976501
17.33 347.688904
17.34 348.512787
17.35 356.286865
17.36 357.335358
17.37 349.399261
17.38 344.746063
17.39 344.523712
17.40 347.957092
17.41 349.611298
17.42 347.201721
17.43 349.341064
17.44 349.665558
17.45 352.055725
17.46 354.351196
17.47 354.065399
17.48 358.08902
17.49 358.289307
17.50 359.36499
17.51 367.315338
17.52 365.432709
17.53 358.989594
17.54 359.49231
17.55 354.704834
17.56 353.459229
17.57 357.577606
17.58 359.261719
17.59 361.247833
17.60 365.580353
17.61 370.88504
17.62 372.329254
17.63 365.669495
17.64 366.104095
17.65 367.328491
17.66 364.976379
17.67 365.777588
17.68 359.482941
17.69 359.809631
17.70 366.257904
17.71 364.523956
17.72 360.30011
17.73 361.591309
17.74 366.618805
17.75 363.093597
17.76 359.597931
17.77 367.840546
17.78 368.792145
17.79 363.459106
17.80 365.529785
17.81 358.036133
17.82 353.268372
17.83 356.414948
17.84 359.119629
17.85 366.164276
17.86 370.321564
17.87 367.369781
17.88 371.367889
17.89 374.688599
17.90 368.531982
17.91 368.603638
17.92 370.35202
17.93 374.04541
17.94 380.601288
17.95 378.416473
17.96 376.718445
17.97 378.635254
17.98 372.819366
17.99 372.924957
18.00 375.538666
18.01 371.947815
18.02 368.918365
18.03 370.635925
18.04 370.203705
18.05 372.236877
18.06 374.816162
18.07 375.294342
18.08 377.805725
18.09 381.451599
18.10 380.475037
18.11 378.331726
18.12 379.322632
18.13 374.708923
18.14 371.183044
18.15 372.166565
18.16 369.762665
18.17 370.720673
18.18 370.05722
18.19 374.377594
18.20 385.711182
18.21 392.322266
18.22 392.912842
18.23 390.534973
18.24 390.346741
18.25 388.668091
18.26 385.693237
18.27 380.503662
18.28 379.055878
18.29 383.752075
18.30 381.514984
18.31 378.795807
18.32 375.521942
18.33 376.410583
18.34 388.614471
18.35 391.712891
18.36 384.152954
18.37 388.739838
18.38 390.320526
18.39 384.062195
18.40 376.682556
18.41 379.413971
18.42 380.738953
18.43 377.889862
18.44 380.121796
18.45 379.349884
18.46 382.68103
18.47 381.938049
18.48 381.113312
18.49 380.725922
18.50 382.295715
18.51 384.361725
18.52 388.880859
18.53 389.000153
18.54 392.402893
18.55 402.666107
18.56 403.263855
18.57 401.626648
18.58 399.831818
18.59 399.788269
18.60 394.274384
18.61 391.531891
18.62 390.272919
18.63 387.35144
18.64 391.431641
18.65 387.140503
18.66 384.830139
18.67 400.637421
18.68 404.460327
18.69 398.748047
18.70 405.913544
18.71 410.402435
18.72 407.338867
18.73 407.999969
18.74 405.207764
18.75 397.669739
18.76 391.797272
18.77 385.32431
18.78 379.06308
18.79 388.501801
18.80 396.920197
18.81 402.96991
18.82 411.607574
18.83 409.199799
18.84 401.301849
18.85 405.543701
18.86 407.283173
18.87 408.289398
18.88 409.017273
18.89 403.97876
18.90 409.442688
18.91 407.703339
18.92 399.361023
18.93 397.357544
18.94 400.108276
18.95 402.854401
18.96 402.217896
18.97 408.09201
18.98 415.277405
18.99 415.389832
19.00 415.256073
19.01 412.605011
19.02 404.199768
19.03 398.736572
19.04 397.426697
19.05 401.114288
19.06 402.867523
19.07 404.174255
19.08 403.611816
19.09 403.229034
19.10 406.905701
19.11 414.201752
19.12 420.551514
19.13 418.169647
19.14 412.594971
19.15 414.531891
19.16 423.929474
19.17 423.797424
19.18 430.690125
19.19 426.79715
19.20 418.743622
19.21 416.343964
19.22 420.992157
19.23 420.823822
19.24 416.724487
19.25 422.365509
19.26 427.637451
19.27 427.773376
19.28 431.64035
19.29 437.690399
19.30 432.252441
19.31 426.434692
19.32 423.174652
19.33 424.994507
19.34 427.314728
19.35 422.414703
19.36 422.137665
19.37 422.649536
19.38 430.240662
19.39 437.272461
19.40 437.169922
19.41 438.825653
19.42 432.925446
19.43 424.319916
19.44 423.945374
19.45 426.432739
19.46 431.241394
19.47 433.397491
19.48 427.954224
19.49 429.791779
19.50 433.127228
19.51 435.596313
19.52 436.093506
19.53 443.970825
19.54 450.396698
19.55 445.990417
19.56 445.355804
19.57 438.089996
19.58 433.515015
19.59 446.522919
19.60 444.714661
19.61 437.192841
19.62 437.470581
19.63 437.785156
19.64 438.065796
19.65 434.873535
19.66 442.395142
19.67 444.979797
19.68 437.397217
19.69 440.113892
19.70 439.958099
19.71 436.051636
19.72 436.957275
19.73 441.898651
19.74 448.218292
19.75 448.638031
19.76 448.390228
19.77 447.827362
19.78 449.430573
19.79 449.587524
19.80 450.524994
19.81 449.133911
19.82 446.964722
19.83 442.974487
19.84 444.895905
19.85 454.889435
19.86 462.873688
19.87 463.367126
19.88 466.843719
19.89 466.042267
19.90 465.678101
19.91 462.284729
19.92 464.424469
19.93 464.446075
19.94 456.900208
19.95 458.972229
19.96 460.852234
19.97 469.505005
19.98 479.685425
19.99 470.202026
20.00 460.578308
20.01 464.113861
20.02 468.482666
20.03 460.248566
20.04 454.343628
20.05 458.665314
20.06 463.695526
20.07 470.471954
20.08 471.783905
20.09 469.435425
20.10 471.358154
20.11 475.824646
20.12 477.006348
20.13 477.233124
20.14 477.321564
20.15 476.731201
20.16 478.788361
20.17 477.748596
20.18 474.261719
20.19 475.220551
20.20 479.319702
20.21 480.956055
20.22 478.170074
20.23 475.704651
20.24 477.357025
20.25 482.513824
20.26 490.322113
20.27 498.015625
20.28 488.337769
20.29 475.75943
20.30 469.749115
20.31 464.966736
20.32 469.224152
20.33 473.069946
20.34 472.621643
20.35 475.894714
20.36 478.188629
20.37 480.122742
20.38 486.325378
20.39 490.027649
20.40 481.783691
20.41 480.57428
20.42 488.850952
20.43 488.437927
20.44 480.276672
20.45 476.356689
20.46 476.683929
20.47 478.35321
20.48 485.440948
20.49 487.676971
20.50 486.956238
20.51 483.925201
20.52 482.440582
20.53 490.608246
20.54 492.639221
20.55 486.555573
20.56 482.219421
20.57 480.797211
20.58 487.634338
20.59 490.901062
20.60 490.747711
20.61 490.655396
20.62 492.772583
20.63 493.372711
20.64 492.838165
20.65 490.772919
20.66 486.004486
20.67 483.251129
20.68 488.922729
20.69 495.453796
20.70 495.73996
20.71 498.267883
20.72 502.58316
20.73 497.316925
20.74 495.659576
20.75 498.222137
20.76 494.169891
20.77 495.66864
20.78 499.707489
20.79 503.672577
20.80 505.425018
20.81 511.201874
20.82 514.000366
20.83 514.40741
20.84 521.083008
20.85 521.508118
20.86 520.272827
20.87 512.59021
20.88 496.402374
20.89 489.987274
