!@!!GADDS PLOTSO FILE: Chi integration type
!@!!Title/SampleName: ML_MAPbX3
!@!!User: NREL
!@!!Site: NREL SERF C211; SN 2510
!@!!Frame: 081022_MLProject_000_005.gfrm
!@!!Wavelengths    1.54184   1.54056   1.54439
!@!!Frame angles: 2Theta: 28.000 Omega: 5.000 Phi: 0.000 Chi: 90.000
!@!!Integration range: 2Theta: 10.000 to 41.100  Gamma: -120.400 to -60.400
!@!!Integration method: bin normalized
!@!N
!@!SS
!@!M
!@!L 0.0 0.0 0.0 0.0
!@!XDegrees
!@!YCounts
10.00 117.308975
10.01 109.822121
10.02 101.205482
10.03 106.688385
10.04 115.687508
10.05 116.622841
10.06 118.838219
10.07 117.270493
10.08 118.958992
10.09 117.681648
10.10 116.002663
10.11 119.121902
10.12 121.475105
10.13 122.912697
10.14 121.971413
10.15 118.829208
10.16 119.798103
10.17 120.219078
10.18 123.914871
10.19 126.805901
10.20 122.31179
10.21 113.528496
10.22 112.638748
10.23 113.18203
10.24 116.527176
10.25 122.435692
10.26 117.979523
10.27 115.514061
10.28 119.966721
10.29 121.276047
10.30 120.286674
10.31 121.33976
10.32 121.131569
10.33 120.980835
10.34 117.548462
10.35 121.266289
10.36 126.734734
10.37 121.329407
10.38 115.815819
10.39 111.251266
10.40 109.105324
10.41 118.694489
10.42 124.759117
10.43 123.885056
10.44 126.053612
10.45 127.421677
10.46 124.55722
10.47 122.971733
10.48 126.874802
10.49 127.856483
10.50 127.720612
10.51 125.478951
10.52 124.220909
10.53 131.263428
10.54 130.409256
10.55 127.132149
10.56 123.502213
10.57 117.894272
10.58 117.832214
10.59 119.383484
10.60 119.785011
10.61 119.799866
10.62 122.686371
10.63 124.290474
10.64 121.163261
10.65 113.641708
10.66 116.585281
10.67 124.551743
10.68 129.584305
10.69 126.499176
10.70 126.306229
10.71 130.143265
10.72 128.839478
10.73 125.131157
10.74 126.430168
10.75 127.588829
10.76 126.819702
10.77 128.666031
10.78 124.069077
10.79 119.477417
10.80 123.089859
10.81 131.507874
10.82 128.648865
10.83 124.039055
10.84 125.77829
10.85 123.385345
10.86 121.299217
10.87 118.619057
10.88 117.417603
10.89 121.214775
10.90 131.18483
10.91 129.869293
10.92 124.366554
10.93 130.727463
10.94 128.790573
10.95 126.359123
10.96 129.262329
10.97 132.464081
10.98 133.501846
10.99 122.823196
11.00 113.80619
11.01 117.278343
11.02 122.85952
11.03 124.774361
11.04 125.321457
11.05 124.726387
11.06 122.328262
11.07 125.740494
11.08 132.65451
11.09 131.685577
11.10 129.107285
11.11 130.281311
11.12 131.810883
11.13 134.637482
11.14 132.894516
11.15 134.116882
11.16 140.240387
11.17 139.248108
11.18 126.208282
11.19 119.361565
11.20 129.902908
11.21 135.600021
11.22 136.122803
11.23 138.493286
11.24 133.98938
11.25 126.440895
11.26 126.069099
11.27 129.182022
11.28 126.288048
11.29 125.980743
11.30 132.827515
11.31 136.714401
11.32 130.703094
11.33 128.565231
11.34 128.197296
11.35 125.362167
11.36 126.090263
11.37 135.293442
11.38 140.793121
11.39 134.95163
11.40 124.313614
11.41 121.42469
11.42 123.945732
11.43 125.039703
11.44 130.315689
11.45 135.032272
11.46 133.867203
11.47 127.770813
11.48 122.883011
11.49 120.510139
11.50 120.910408
11.51 124.364128
11.52 123.255859
11.53 123.189278
11.54 126.004829
11.55 126.713066
11.56 129.810883
11.57 133.930222
11.58 131.303574
11.59 129.761688
11.60 140.591263
11.61 144.572968
11.62 133.928345
11.63 135.223892
11.64 135.012604
11.65 127.68512
11.66 130.195862
11.67 136.010468
11.68 134.377151
11.69 130.077835
11.70 128.189636
11.71 128.571747
11.72 132.148224
11.73 134.344086
11.74 130.256104
11.75 130.904373
11.76 130.948166
11.77 121.177689
11.78 111.268875
11.79 117.646904
11.80 124.563858
11.81 127.760376
11.82 132.97673
11.83 134.43779
11.84 131.803055
11.85 129.955231
11.86 133.263245
11.87 138.653351
11.88 132.526794
11.89 130.474518
11.90 138.343918
11.91 142.934036
11.92 147.071381
11.93 146.032501
11.94 138.941528
11.95 137.794876
11.96 137.291962
11.97 133.861237
11.98 134.750443
11.99 137.017563
12.00 139.8591
12.01 139.461655
12.02 136.169617
12.03 135.095703
12.04 136.123474
12.05 137.055588
12.06 139.140411
12.07 133.136703
12.08 131.490509
12.09 132.566315
12.10 134.035263
12.11 140.340256
12.12 141.905243
12.13 139.25972
12.14 136.331741
12.15 138.427475
12.16 146.5513
12.17 152.202011
12.18 143.130844
12.19 134.143524
12.20 137.002838
12.21 141.414871
12.22 140.668076
12.23 139.331635
12.24 137.238098
12.25 140.728378
12.26 143.951355
12.27 140.911179
12.28 139.565781
12.29 138.5056
12.30 138.818359
12.31 141.33168
12.32 145.147415
12.33 143.741806
12.34 142.541046
12.35 142.428848
12.36 141.904419
12.37 143.735336
12.38 143.959167
12.39 142.625534
12.40 144.994781
12.41 147.127594
12.42 147.502975
12.43 145.785751
12.44 142.746445
12.45 144.215378
12.46 140.287415
12.47 141.223236
12.48 150.458786
12.49 157.109009
12.50 155.666748
12.51 148.51741
12.52 143.431992
12.53 142.383408
12.54 143.816376
12.55 145.495712
12.56 146.81424
12.57 147.894379
12.58 147.908188
12.59 148.920105
12.60 153.327133
12.61 160.275238
12.62 167.494492
12.63 162.667984
12.64 154.114075
12.65 150.915329
12.66 150.401321
12.67 153.846527
12.68 150.581894
12.69 152.268707
12.70 154.298523
12.71 147.435196
12.72 146.237518
12.73 151.012772
12.74 152.571152
12.75 157.239822
12.76 164.776123
12.77 162.411484
12.78 154.986954
12.79 153.148209
12.80 151.968323
12.81 157.327515
12.82 162.539825
12.83 155.457077
12.84 151.846268
12.85 157.029236
12.86 155.125412
12.87 151.92865
12.88 155.672546
12.89 156.871078
12.90 153.699692
12.91 155.968002
12.92 152.783707
12.93 144.947357
12.94 144.858765
12.95 146.694473
12.96 149.37738
12.97 150.381073
12.98 146.173645
12.99 142.743729
13.00 146.535492
13.01 153.167374
13.02 155.04306
13.03 151.731094
13.04 144.462997
13.05 142.39946
13.06 152.911285
13.07 156.186539
13.08 154.037949
13.09 145.859634
13.10 140.984695
13.11 147.277985
13.12 152.419083
13.13 154.662598
13.14 150.81514
13.15 144.945557
13.16 146.902359
13.17 146.646561
13.18 144.983368
13.19 147.429016
13.20 145.032745
13.21 142.375275
13.22 144.659225
13.23 148.121033
13.24 148.045502
13.25 143.018539
13.26 143.875137
13.27 146.060226
13.28 146.791504
13.29 146.330078
13.30 142.487701
13.31 144.166306
13.32 149.618805
13.33 150.302231
13.34 152.39415
13.35 152.988739
13.36 144.043503
13.37 140.274506
13.38 145.430496
13.39 145.305145
13.40 146.431885
13.41 152.151566
13.42 151.517914
13.43 149.127136
13.44 142.44075
13.45 146.156509
13.46 153.947083
13.47 156.733765
13.48 161.500015
13.49 155.445023
13.50 150.376587
13.51 146.741486
13.52 146.926559
13.53 149.955063
13.54 150.620102
13.55 154.46907
13.56 160.617905
13.57 163.34938
13.58 157.674332
13.59 151.40242
13.60 150.599869
13.61 154.023071
13.62 153.461548
13.63 147.196014
13.64 146.292725
13.65 148.81517
13.66 149.19342
13.67 146.981522
13.68 147.897079
13.69 151.743912
13.70 153.809021
13.71 156.585907
13.72 158.058716
13.73 153.298172
13.74 151.375595
13.75 152.957947
13.76 153.90683
13.77 153.294434
13.78 151.636475
13.79 150.94342
13.80 146.669678
13.81 148.838104
13.82 157.537506
13.83 160.110718
13.84 157.10202
13.85 150.426651
13.86 145.041641
13.87 144.842499
13.88 149.703934
13.89 152.570969
13.90 148.489868
13.91 147.989517
13.92 157.761551
13.93 164.804001
13.94 161.240921
13.95 158.147385
13.96 158.681503
13.97 160.93161
13.98 160.011765
13.99 158.304901
14.00 157.695618
14.01 153.372223
14.02 156.005936
14.03 159.418335
14.04 156.960892
14.05 156.692169
14.06 158.698898
14.07 159.99469
14.08 159.997757
14.09 161.990265
14.10 164.817184
14.11 172.082809
14.12 175.321548
14.13 172.893997
14.14 169.024628
14.15 164.952988
14.16 161.673462
14.17 165.48204
14.18 168.138138
14.19 163.157639
14.20 162.919571
14.21 163.41011
14.22 161.582581
14.23 162.170334
14.24 166.571091
14.25 164.422974
14.26 163.737701
14.27 164.635544
14.28 167.414413
14.29 169.871796
14.30 173.49028
14.31 174.098846
14.32 165.890274
14.33 162.671173
14.34 165.251816
14.35 173.368225
14.36 179.507278
14.37 184.535812
14.38 185.341125
14.39 182.219131
14.40 185.481171
14.41 190.452103
14.42 188.321884
14.43 195.272324
14.44 200.182114
14.45 193.082397
14.46 192.800705
14.47 195.380692
14.48 195.151459
14.49 200.294083
14.50 209.51326
14.51 214.451492
14.52 219.757034
14.53 222.124268
14.54 218.701767
14.55 217.711807
14.56 216.082306
14.57 214.70282
14.58 211.472763
14.59 209.605103
14.60 209.441162
14.61 211.321213
14.62 219.899948
14.63 225.990051
14.64 223.147095
14.65 217.198563
14.66 217.44809
14.67 217.678207
14.68 215.992386
14.69 218.9207
14.70 217.713852
14.71 213.861649
14.72 211.423904
14.73 214.186874
14.74 218.397949
14.75 219.954559
14.76 218.556137
14.77 216.135193
14.78 213.002228
14.79 207.917053
14.80 206.276703
14.81 199.345093
14.82 199.367462
14.83 212.462753
14.84 218.200775
14.85 214.210114
14.86 214.15596
14.87 211.7379
14.88 211.387878
14.89 217.478882
14.90 212.697861
14.91 208.624451
14.92 213.427002
14.93 216.934174
14.94 218.559067
14.95 221.462097
14.96 221.714294
14.97 224.450424
14.98 228.384018
14.99 231.03804
15.00 237.813858
15.01 242.646454
15.02 243.095963
15.03 240.836334
15.04 250.423035
15.05 252.27858
15.06 249.161987
15.07 256.489624
15.08 265.528229
15.09 261.532562
15.10 262.27243
15.11 276.828949
15.12 293.71167
15.13 300.337494
15.14 301.713745
15.15 307.238525
15.16 318.360077
15.17 336.488953
15.18 332.083405
15.19 338.010864
15.20 341.184784
15.21 349.852264
15.22 367.748749
15.23 391.386475
15.24 402.280457
15.25 412.207184
15.26 425.63092
15.27 433.699951
15.28 437.648743
15.29 449.889801
15.30 460.300079
15.31 468.726044
15.32 491.256561
15.33 502.305817
15.34 514.411011
15.35 517.382141
15.36 528.344788
15.37 534.94342
15.38 545.190552
15.39 552.632751
15.40 571.54071
15.41 583.864868
15.42 586.960754
15.43 588.144592
15.44 577.650635
15.45 562.384216
15.46 556.456726
15.47 556.372803
15.48 552.096924
15.49 536.220398
15.50 520.166016
15.51 494.078918
15.52 485.712372
15.53 467.302551
15.54 453.727417
15.55 428.585114
15.56 421.750244
15.57 416.970764
15.58 396.114105
15.59 374.478821
15.60 357.527222
15.61 348.575592
15.62 330.260559
15.63 320.641663
15.64 305.000916
15.65 296.449768
15.66 284.460388
15.67 277.560883
15.68 272.9422
15.69 268.729187
15.70 256.49762
15.71 252.911606
15.72 253.582901
15.73 247.687225
15.74 239.413437
15.75 231.002304
15.76 225.69632
15.77 224.398575
15.78 225.872299
15.79 224.975647
15.80 221.831146
15.81 220.848724
15.82 216.687347
15.83 210.434418
15.84 207.76178
15.85 203.566727
15.86 202.833115
15.87 204.957718
15.88 207.075546
15.89 208.628159
15.90 206.228912
15.91 199.982986
15.92 193.084244
15.93 189.245193
15.94 188.127045
15.95 189.79303
15.96 193.86116
15.97 191.760437
15.98 192.223511
15.99 187.624878
16.00 181.91716
16.01 185.723267
16.02 184.967087
16.03 186.791138
16.04 185.601868
16.05 182.31192
16.06 181.846756
16.07 179.454361
16.08 177.864761
16.09 174.728653
16.10 175.554504
16.11 184.551987
16.12 190.065842
16.13 182.931351
16.14 181.799713
16.15 192.784485
16.16 191.208237
16.17 184.208664
16.18 183.498795
16.19 186.852997
16.20 183.830246
16.21 173.745438
16.22 175.718658
16.23 181.613297
16.24 182.28595
16.25 185.870163
16.26 181.779999
16.27 174.159332
16.28 169.668335
16.29 170.037033
16.30 177.144928
16.31 181.920471
16.32 180.07457
16.33 182.117569
16.34 179.387283
16.35 174.05159
16.36 174.513916
16.37 174.01796
16.38 182.805954
16.39 180.973328
16.40 175.852615
16.41 171.979141
16.42 164.556122
16.43 164.100861
16.44 170.23671
16.45 177.010056
16.46 185.905304
16.47 185.820038
16.48 180.167236
16.49 179.511841
16.50 172.148666
16.51 171.553299
16.52 177.123032
16.53 178.780823
16.54 179.12915
16.55 176.281403
16.56 171.78093
16.57 172.008621
16.58 172.78862
16.59 172.028946
16.60 171.029282
16.61 167.080109
16.62 163.86264
16.63 165.205719
16.64 169.312286
16.65 172.771927
16.66 173.256317
16.67 169.936417
16.68 169.495056
16.69 175.615936
16.70 178.48056
16.71 178.643478
16.72 182.444565
16.73 185.018082
16.74 180.991974
16.75 173.013809
16.76 173.224915
16.77 176.818787
16.78 176.757767
16.79 173.44989
16.80 172.052414
16.81 173.245453
16.82 172.185593
16.83 170.826157
16.84 171.997528
16.85 176.558228
16.86 179.799713
16.87 176.731949
16.88 177.505646
16.89 180.448486
16.90 181.495392
16.91 178.172455
16.92 172.15593
16.93 169.687851
16.94 173.056335
16.95 176.787598
16.96 178.779419
16.97 179.475952
16.98 182.286667
16.99 185.242004
17.00 183.366348
17.01 177.74588
17.02 178.085281
17.03 179.854645
17.04 179.010788
17.05 181.003754
17.06 182.736221
17.07 179.456451
17.08 181.107544
17.09 179.815048
17.10 179.196945
17.11 180.930237
17.12 179.175964
17.13 177.525421
17.14 179.95871
17.15 177.558807
17.16 172.874924
17.17 174.425797
17.18 175.989227
17.19 179.710709
17.20 183.646378
17.21 182.99971
17.22 181.893738
17.23 186.474655
17.24 184.17392
17.25 177.01178
17.26 178.339066
17.27 182.851318
17.28 183.902557
17.29 182.96637
17.30 187.738846
17.31 194.000076
17.32 193.472931
17.33 185.361023
17.34 179.987549
17.35 182.379929
17.36 182.530228
17.37 180.652267
17.38 182.904877
17.39 192.176712
17.40 189.275879
17.41 183.452591
17.42 184.265732
17.43 181.101791
17.44 179.107758
17.45 181.591492
17.46 186.162476
17.47 191.23114
17.48 189.406342
17.49 182.086334
17.50 179.909851
17.51 185.092819
17.52 186.82103
17.53 185.239212
17.54 189.790161
17.55 197.112198
17.56 191.021973
17.57 184.886856
17.58 189.794586
17.59 195.270462
17.60 192.538345
17.61 192.571884
17.62 191.905289
17.63 192.058792
17.64 192.337784
17.65 185.68277
17.66 184.516006
17.67 186.699478
17.68 188.791077
17.69 190.086365
17.70 185.749786
17.71 186.30246
17.72 193.431488
17.73 190.191971
17.74 187.749222
17.75 189.653214
17.76 185.443008
17.77 183.62941
17.78 182.978973
17.79 187.542801
17.80 192.429886
17.81 192.258286
17.82 191.110245
17.83 188.834122
17.84 188.632065
17.85 189.745453
17.86 192.194275
17.87 190.526947
17.88 190.279907
17.89 190.319748
17.90 192.426743
17.91 190.842102
17.92 189.440475
17.93 192.809875
17.94 195.38916
17.95 194.323669
17.96 191.94519
17.97 188.953247
17.98 190.400665
17.99 193.369339
18.00 191.041077
18.01 186.027039
18.02 186.538132
18.03 192.97374
18.04 192.483673
18.05 190.211746
18.06 192.592789
18.07 191.541519
18.08 191.326035
18.09 189.983231
18.10 187.012253
18.11 188.488861
18.12 192.718903
18.13 194.068848
18.14 192.482269
18.15 189.768417
18.16 189.946625
18.17 190.963577
18.18 196.947128
18.19 196.297028
18.20 191.617035
18.21 193.167618
18.22 194.35582
18.23 194.381683
18.24 195.244949
18.25 197.197632
18.26 196.538879
18.27 194.73288
18.28 193.114655
18.29 192.41684
18.30 197.574829
18.31 191.052948
18.32 185.897675
18.33 191.921188
18.34 200.577576
18.35 199.626007
18.36 202.188049
18.37 204.645844
18.38 199.407776
18.39 195.463562
18.40 192.147461
18.41 195.611847
18.42 198.245972
18.43 197.452606
18.44 200.319183
18.45 197.343185
18.46 196.116837
18.47 199.16774
18.48 200.982132
18.49 200.235901
18.50 196.866455
18.51 201.810806
18.52 202.68158
18.53 203.562073
18.54 204.618011
18.55 203.867035
18.56 206.575409
18.57 207.515579
18.58 204.399902
18.59 201.729431
18.60 203.545212
18.61 205.531204
18.62 202.783539
18.63 201.342209
18.64 202.009949
18.65 196.968933
18.66 190.485718
18.67 189.270935
18.68 197.333298
18.69 206.179977
18.70 205.903412
18.71 202.791412
18.72 202.34903
18.73 198.757034
18.74 197.993683
18.75 198.474258
18.76 197.556641
18.77 198.010437
18.78 199.869949
18.79 200.268143
18.80 202.582993
18.81 202.438354
18.82 199.669434
18.83 199.200333
18.84 196.958771
18.85 197.460129
18.86 197.781616
18.87 198.736328
18.88 197.929962
18.89 198.216843
18.90 202.303955
18.91 205.177414
18.92 204.716568
18.93 201.906403
18.94 193.850418
18.95 194.017426
18.96 197.399429
18.97 204.095825
18.98 210.428238
18.99 212.160629
19.00 210.910538
19.01 208.774643
19.02 209.230911
19.03 213.439484
19.04 213.58876
19.05 206.520004
19.06 200.1436
19.07 202.52948
19.08 206.346619
19.09 206.78714
19.10 212.049103
19.11 220.277985
19.12 219.168457
19.13 210.456055
19.14 203.327057
19.15 208.068375
19.16 217.546417
19.17 214.233551
19.18 211.426651
19.19 213.14711
19.20 207.698975
19.21 207.022217
19.22 213.439255
19.23 217.225891
19.24 214.903137
19.25 212.969742
19.26 212.712341
19.27 211.983551
19.28 213.897705
19.29 213.102646
19.30 209.156357
19.31 208.32457
19.32 203.957108
19.33 207.795975
19.34 210.837204
19.35 212.111557
19.36 212.497589
19.37 210.136124
19.38 208.376785
19.39 210.441788
19.40 214.281815
19.41 216.223694
19.42 213.235153
19.43 215.766098
19.44 217.010086
19.45 215.405975
19.46 218.698364
19.47 217.798691
19.48 212.662735
19.49 210.85791
19.50 212.709274
19.51 215.730209
19.52 217.990494
19.53 215.981262
19.54 213.976151
19.55 211.027328
19.56 212.235153
19.57 213.708954
19.58 215.072098
19.59 223.02507
19.60 230.965073
19.61 227.908279
19.62 224.624222
19.63 218.471237
19.64 214.525665
19.65 217.487183
19.66 222.91394
19.67 221.614319
19.68 214.421783
19.69 215.078476
19.70 218.683182
19.71 218.451416
19.72 222.500214
19.73 225.380035
19.74 220.291367
19.75 221.656418
19.76 230.511154
19.77 229.690918
19.78 222.762848
19.79 215.623672
19.80 214.873047
19.81 220.701401
19.82 225.065369
19.83 226.634567
19.84 227.044662
19.85 229.852753
19.86 228.580231
19.87 228.393921
19.88 236.982986
19.89 237.582809
19.90 229.650375
19.91 223.385864
19.92 222.450394
19.93 219.49025
19.94 218.64679
19.95 220.684906
19.96 220.619751
19.97 223.422897
19.98 223.659058
19.99 223.240814
20.00 222.227951
20.01 220.891083
20.02 222.119614
20.03 226.810287
20.04 226.736176
20.05 227.686279
20.06 233.510941
20.07 233.184265
20.08 231.533112
20.09 232.343872
20.10 227.99942
20.11 224.108002
20.12 224.066177
20.13 226.02034
20.14 228.846832
20.15 227.812988
20.16 224.172989
20.17 224.730347
20.18 227.71756
20.19 228.145142
20.20 228.891373
20.21 228.062271
20.22 230.948044
20.23 227.991928
20.24 224.414444
20.25 226.899673
20.26 233.638443
20.27 237.668686
20.28 234.207092
20.29 233.869385
20.30 232.489426
20.31 229.676773
20.32 231.784988
20.33 232.18338
20.34 230.097961
20.35 230.821213
20.36 230.828995
20.37 231.856842
20.38 233.721573
20.39 233.988068
20.40 231.339981
20.41 234.048737
20.42 229.681381
20.43 222.459656
20.44 227.591293
20.45 234.6987
20.46 240.391281
20.47 239.754547
20.48 235.572845
20.49 231.432404
20.50 234.956284
20.51 238.845154
20.52 239.425888
20.53 236.197601
20.54 234.244019
20.55 236.526642
20.56 241.318497
20.57 245.084137
20.58 241.864014
20.59 238.072235
20.60 236.22612
20.61 233.810471
20.62 237.604416
20.63 240.576431
20.64 243.493256
20.65 241.549789
20.66 242.018066
20.67 245.096436
20.68 241.665314
20.69 238.896515
20.70 237.658234
20.71 237.773254
20.72 245.096313
20.73 249.732025
20.74 250.977356
20.75 246.503708
20.76 242.619705
20.77 241.780258
20.78 240.994186
20.79 239.870911
20.80 241.04361
20.81 243.306854
20.82 245.085373
20.83 247.814178
20.84 249.60051
20.85 251.067505
20.86 253.268692
20.87 250.484787
20.88 246.489456
20.89 245.162292
20.90 245.128128
