!@!!GADDS PLOTSO FILE: Chi integration type
!@!!Title/SampleName: ML_MAPbX3
!@!!User: NREL
!@!!Site: NREL SERF C211; SN 2510
!@!!Frame: 081022_MLProject_000_009.gfrm
!@!!Wavelengths    1.54184   1.54056   1.54439
!@!!Frame angles: 2Theta: 28.000 Omega: 5.000 Phi: 0.000 Chi: 90.000
!@!!Integration range: 2Theta: 10.000 to 40.000  Gamma: -135.000 to -45.000
!@!!Integration method: bin normalized
!@!N
!@!SS
!@!M
!@!L 0.0 0.0 0.0 0.0
!@!XDegrees
!@!YCounts
10.00 163.096024
10.02 170.848053
10.04 159.363022
10.06 166.366928
10.08 168.59581
10.10 165.339676
10.12 165.281967
10.14 169.076569
10.16 167.026657
10.18 165.174591
10.20 166.157578
10.22 166.709793
10.24 168.402039
10.26 171.548431
10.28 175.046158
10.30 176.952225
10.32 177.395905
10.34 176.625534
10.36 174.87944
10.38 179.05423
10.40 176.757172
10.42 179.157166
10.44 175.285172
10.46 186.073853
10.48 186.804535
10.50 185.793884
10.52 178.6866
10.54 187.952835
10.56 189.466583
10.58 180.32753
10.60 186.976334
10.62 188.518494
10.64 186.654755
10.66 185.318726
10.68 183.076614
10.70 197.607422
10.72 194.624237
10.74 190.919876
10.76 191.551041
10.78 187.621246
10.80 187.80777
10.82 190.222488
10.84 191.705948
10.86 194.118774
10.88 195.611572
10.90 189.552704
10.92 191.672226
10.94 187.134109
10.96 189.902267
10.98 191.731094
11.00 198.604797
11.02 202.066162
11.04 199.480606
11.06 195.343216
11.08 189.600433
11.10 191.881653
11.12 200.324219
11.14 208.915756
11.16 210.710892
11.18 211.559326
11.20 208.475891
11.22 205.70932
11.24 205.175522
11.26 209.299408
11.28 209.589447
11.30 204.292267
11.32 202.723206
11.34 209.227203
11.36 211.791031
11.38 213.321457
11.40 212.147888
11.42 210.933594
11.44 203.096481
11.46 213.219803
11.48 221.043045
11.50 213.498047
11.52 212.714432
11.54 218.737015
11.56 209.046707
11.58 213.752228
11.60 215.699814
11.62 217.140564
11.64 211.480728
11.66 215.365707
11.68 222.595154
11.70 217.422577
11.72 212.211182
11.74 218.295547
11.76 225.53949
11.78 225.194504
11.80 218.991852
11.82 212.662369
11.84 219.391068
11.86 234.093094
11.88 227.811462
11.90 227.99617
11.92 233.62291
11.94 229.921066
11.96 229.245621
11.98 224.711319
12.00 230.571198
12.02 227.945938
12.04 224.339828
12.06 227.598267
12.08 235.794556
12.10 240.37738
12.12 234.271027
12.14 236.124207
12.16 240.707428
12.18 244.048691
12.20 238.903793
12.22 243.58876
12.24 254.156662
12.26 253.475327
12.28 243.938141
12.30 249.221207
12.32 248.658493
12.34 256.96521
12.36 259.956543
12.38 254.969162
12.40 246.254211
12.42 253.814484
12.44 269.665314
12.46 270.702332
12.48 273.598785
12.50 270.467529
12.52 267.973572
12.54 269.21933
12.56 269.980133
12.58 268.303619
12.60 269.356018
12.62 270.802307
12.64 274.07196
12.66 273.74472
12.68 277.440063
12.70 275.692261
12.72 261.328827
12.74 260.570251
12.76 264.633026
12.78 267.611237
12.80 267.767975
12.82 264.712158
12.84 262.999451
12.86 265.554688
12.88 263.915375
12.90 265.546478
12.92 257.025909
12.94 246.303619
12.96 248.084351
12.98 246.356735
13.00 256.585419
13.02 255.422318
13.04 250.510056
13.06 254.855545
13.08 251.046722
13.10 259.881042
13.12 253.637161
13.14 248.828156
13.16 263.290649
13.18 256.778137
13.20 261.344238
13.22 260.206024
13.24 245.699219
13.26 251.231277
13.28 246.735641
13.30 250.8172
13.32 257.524628
13.34 248.429764
13.36 260.087616
13.38 255.949249
13.40 250.757446
13.42 247.647812
13.44 250.700989
13.46 255.331512
13.48 261.206573
13.50 253.3853
13.52 245.08046
13.54 252.674347
13.56 258.633514
13.58 256.063385
13.60 248.907486
13.62 252.3582
13.64 262.337463
13.66 260.275909
13.68 267.431732
13.70 273.18927
13.72 259.626923
13.74 255.86853
13.76 262.315308
13.78 267.014191
13.80 259.149323
13.82 263.881042
13.84 269.602966
13.86 268.47525
13.88 272.857941
13.90 276.007874
13.92 267.019135
13.94 268.313446
13.96 275.907532
13.98 275.86499
14.00 272.584869
14.02 271.656891
14.04 270.517944
14.06 273.654541
14.08 273.052643
14.10 269.428986
14.12 274.731476
14.14 271.073029
14.16 274.343536
14.18 278.765808
14.20 275.126373
14.22 270.463257
14.24 270.770203
14.26 270.669312
14.28 279.68399
14.30 275.033936
14.32 271.796448
14.34 275.789581
14.36 281.773621
14.38 281.824402
14.40 288.637512
14.42 286.272919
14.44 283.905365
14.46 283.141693
14.48 293.317657
14.50 289.520081
14.52 283.309174
14.54 288.41452
14.56 299.379211
14.58 295.730377
14.60 299.738922
14.62 301.095398
14.64 304.455353
14.66 307.484924
14.68 311.861298
14.70 324.44754
14.72 330.915649
14.74 331.283417
14.76 333.809235
14.78 335.627686
14.80 346.449921
14.82 356.159943
14.84 356.362152
14.86 369.911316
14.88 384.173523
14.90 382.314026
14.92 387.787537
14.94 393.676697
14.96 406.027588
14.98 422.522125
15.00 427.895752
15.02 442.598602
15.04 462.132721
15.06 473.889252
15.08 485.478516
15.10 502.091949
15.12 512.97345
15.14 513.712402
15.16 517.563599
15.18 530.999268
15.20 524.754578
15.22 527.498047
15.24 521.069031
15.26 506.096588
15.28 493.800385
15.30 483.009613
15.32 461.758972
15.34 440.677032
15.36 432.942047
15.38 407.739288
15.40 393.446259
15.42 383.10025
15.44 365.989319
15.46 359.232208
15.48 357.102539
15.50 348.741669
15.52 334.393799
15.54 332.871429
15.56 331.256287
15.58 322.47934
15.60 325.497498
15.62 326.957977
15.64 324.219238
15.66 317.373047
15.68 306.844696
15.70 317.650879
15.72 323.756622
15.74 319.650726
15.76 317.566254
15.78 319.352722
15.80 322.06488
15.82 320.835785
15.84 310.32843
15.86 308.724792
15.88 309.008514
15.90 313.525513
15.92 311.712067
15.94 304.922302
15.96 309.252594
15.98 319.21756
16.00 309.719635
16.02 307.615204
16.04 311.482147
16.06 304.476837
16.08 304.468201
16.10 311.239929
16.12 322.048004
16.14 316.829468
16.16 310.891907
16.18 312.389343
16.20 316.532654
16.22 316.698578
16.24 319.369598
16.26 313.169983
16.28 305.210052
16.30 321.246979
16.32 326.86496
16.34 315.517242
16.36 314.367035
16.38 312.526794
16.40 315.776672
16.42 312.459076
16.44 315.97049
16.46 317.718018
16.48 322.016388
16.50 317.468323
16.52 314.852142
16.54 317.348083
16.56 319.740845
16.58 326.969055
16.60 324.594391
16.62 317.921051
16.64 312.136627
16.66 315.406769
16.68 317.486084
16.70 319.12085
16.72 331.385742
16.74 334.699066
16.76 330.957458
16.78 323.838806
16.80 321.48941
16.82 324.612579
16.84 327.962738
16.86 332.97467
16.88 333.735718
16.90 328.058044
16.92 332.556183
16.94 330.546326
16.96 335.693695
16.98 336.398376
17.00 339.428162
17.02 338.15802
17.04 336.702057
17.06 335.058868
17.08 336.977417
17.10 334.752045
17.12 332.234772
17.14 343.301514
17.16 340.709656
17.18 340.013275
17.20 338.485474
17.22 337.500671
17.24 338.43457
17.26 350.335724
17.28 352.256195
17.30 343.497742
17.32 348.589966
17.34 346.625031
17.36 342.129608
17.38 343.940826
17.40 333.975769
17.42 336.918274
17.44 344.553009
17.46 348.280548
17.48 353.089111
17.50 350.120148
17.52 348.514771
17.54 353.7659
17.56 352.791046
17.58 342.805298
17.60 340.324493
17.62 346.677643
17.64 358.592621
17.66 356.53006
17.68 349.577972
17.70 354.022644
17.72 355.630585
17.74 343.578369
17.76 353.856262
17.78 361.001404
17.80 358.538788
17.82 357.530823
17.84 359.430511
17.86 359.62088
17.88 353.887299
17.90 357.936676
17.92 363.201752
17.94 361.071747
17.96 366.090118
17.98 363.887939
18.00 364.525452
18.02 362.285706
18.04 366.170929
18.06 375.996704
18.08 374.637177
18.10 369.603394
18.12 371.272003
18.14 372.042358
18.16 368.473694
18.18 368.843597
18.20 370.817169
18.22 375.725616
18.24 367.703552
18.26 368.279541
18.28 381.071167
18.30 379.972046
18.32 371.846924
18.34 375.394318
18.36 377.088898
18.38 378.499634
18.40 374.211334
18.42 379.749603
18.44 376.171478
18.46 376.378204
18.48 394.565979
18.50 393.538605
18.52 381.21936
18.54 382.027008
18.56 392.484467
18.58 401.550446
18.60 392.210571
18.62 387.693024
18.64 387.86911
18.66 384.221924
18.68 386.516205
18.70 389.266846
18.72 399.445099
18.74 404.621887
18.76 395.821716
18.78 398.505646
18.80 402.103363
18.82 396.453583
18.84 394.026917
18.86 395.964203
18.88 402.626495
18.90 405.169739
18.92 401.726654
18.94 403.562988
18.96 405.309448
18.98 403.839417
19.00 403.290222
19.02 398.598328
19.04 400.868774
19.06 408.377472
19.08 410.970917
19.10 406.908783
19.12 407.948059
19.14 410.554596
19.16 412.623138
19.18 414.231293
19.20 413.363647
19.22 422.825592
19.24 420.173431
19.26 413.526917
19.28 414.586731
19.30 416.441132
19.32 415.049042
19.34 422.874451
19.36 427.68512
19.38 421.816772
19.40 420.328583
19.42 420.01178
19.44 418.033569
19.46 421.412659
19.48 429.804474
19.50 424.748871
19.52 417.003357
19.54 424.139984
19.56 429.414612
19.58 434.318115
19.60 433.60025
19.62 426.586121
19.64 431.343018
19.66 433.507416
19.68 434.345245
19.70 433.812164
19.72 431.859253
19.74 436.284454
19.76 436.097656
19.78 431.639374
19.80 429.650421
19.82 431.468689
19.84 435.850739
19.86 443.996368
19.88 443.557373
19.90 448.191437
19.92 448.600739
19.94 452.637177
19.96 447.917206
19.98 446.720337
20.00 450.203674
20.02 447.562439
20.04 448.713989
20.06 447.862701
20.08 447.775208
20.10 442.250488
20.12 450.596527
20.14 452.837006
20.16 451.605927
20.18 455.39267
20.20 456.23288
20.22 462.179718
20.24 454.183258
20.26 461.037415
20.28 470.156311
20.30 465.891052
20.32 458.171661
20.34 470.584076
20.36 481.610413
20.38 471.075195
20.40 465.812805
20.42 465.59491
20.44 452.883545
20.46 460.664154
20.48 473.901459
20.50 468.651123
20.52 465.007874
20.54 478.09433
20.56 472.357544
20.58 466.178162
20.60 464.163879
20.62 474.536621
20.64 478.094635
20.66 483.856842
20.68 484.427887
20.70 482.651581
20.72 480.678741
20.74 480.781219
20.76 488.928345
20.78 493.069275
20.80 490.755341
20.82 490.498291
20.84 490.372681
20.86 482.743317
20.88 493.406097
20.90 497.738708
20.92 497.235718
20.94 497.924194
20.96 503.283783
20.98 505.783173
21.00 508.254578
21.02 503.010742
21.04 494.692017
21.06 508.291199
21.08 507.370514
21.10 516.013062
21.12 503.438416
21.14 501.032745
21.16 514.767456
21.18 524.066956
21.20 524.872437
21.22 528.867737
21.24 529.054321
21.26 528.828308
21.28 531.902405
21.30 537.925415
21.32 547.205444
21.34 545.592407
21.36 557.527405
21.38 566.319031
21.40 562.550903
21.42 552.537292
21.44 560.4552
21.46 563.740662
21.48 563.478271
21.50 566.546387
21.52 564.152832
21.54 572.99585
21.56 560.91803
21.58 570.185181
21.60 575.920837
21.62 573.080811
21.64 570.453552
21.66 562.544189
21.68 566.346985
21.70 567.609619
21.72 559.97467
21.74 550.346619
21.76 543.833496
21.78 551.621582
21.80 550.622131
21.82 551.983215
21.84 546.635742
21.86 556.04541
21.88 557.662292
21.90 552.117432
21.92 544.322327
21.94 547.963684
21.96 539.661072
21.98 548.182373
22.00 552.17627
22.02 551.982544
22.04 555.926453
22.06 550.710388
22.08 553.525818
22.10 549.956909
22.12 543.569702
22.14 541.483948
22.16 541.507568
22.18 541.24707
22.20 538.325317
22.22 545.440125
22.24 553.780884
22.26 559.770386
22.28 553.733093
22.30 546.626526
22.32 551.804077
22.34 556.469482
22.36 557.348999
22.38 554.620361
22.40 556.146057
22.42 564.194031
22.44 564.192505
22.46 559.628906
22.48 570.6745
22.50 567.489319
22.52 561.836792
22.54 560.927063
22.56 559.99292
22.58 571.569763
22.60 574.32019
22.62 563.468384
22.64 568.659912
22.66 571.70575
22.68 572.532593
22.70 566.296936
22.72 569.767273
22.74 568.839478
22.76 569.000916
22.78 573.787659
22.80 571.73822
22.82 578.648743
22.84 583.500244
22.86 581.236511
22.88 574.354675
22.90 572.116821
22.92 568.575439
22.94 575.950134
22.96 587.868347
22.98 591.030273
23.00 586.35907
23.02 584.656494
23.04 579.428589
23.06 580.897583
23.08 581.362061
23.10 578.610535
23.12 579.849548
23.14 585.104614
23.16 579.003296
23.18 575.610291
23.20 578.487061
23.22 578.728088
23.24 582.903687
23.26 583.744324
23.28 588.755432
23.30 587.198547
23.32 591.797241
23.34 598.433472
23.36 593.287476
23.38 589.433594
23.40 591.069458
23.42 583.376465
23.44 591.930237
23.46 583.268066
23.48 587.826477
23.50 589.649902
23.52 588.533691
23.54 583.173462
23.56 583.22821
23.58 584.861633
23.60 585.446472
23.62 582.165466
23.64 585.679077
23.66 586.73114
23.68 587.958252
23.70 588.400513
23.72 595.486938
23.74 600.155212
23.76 596.111328
23.78 592.363953
23.80 591.33667
23.82 589.249817
23.84 591.4776
23.86 598.010498
23.88 599.864136
23.90 604.581116
23.92 599.777222
23.94 598.585754
23.96 584.164185
23.98 585.259644
24.00 591.261475
24.02 594.325012
24.04 589.079041
24.06 595.627991
24.08 599.954346
24.10 608.858459
24.12 603.13208
24.14 595.716553
24.16 589.611389
24.18 594.884338
24.20 600.386292
24.22 595.834839
24.24 593.591614
24.26 596.541931
24.28 593.416016
24.30 597.272522
24.32 606.936279
24.34 600.472046
24.36 598.273743
24.38 603.40863
24.40 597.534485
24.42 598.110046
24.44 592.039246
24.46 594.717468
24.48 599.963684
24.50 600.87793
24.52 595.239929
24.54 596.12439
24.56 610.603271
24.58 608.340271
24.60 597.971436
24.62 597.461121
24.64 601.78772
24.66 607.325073
24.68 597.604065
24.70 595.67804
24.72 607.639893
24.74 615.323364
24.76 601.573181
24.78 597.265198
24.80 589.507385
24.82 595.451599
24.84 607.916992
24.86 606.28894
24.88 590.016113
24.90 597.416199
24.92 602.428101
24.94 608.828308
24.96 609.749512
24.98 611.971802
25.00 603.070313
25.02 604.802673
25.04 605.514404
25.06 609.242188
25.08 605.442566
25.10 609.313171
25.12 601.455566
25.14 596.521912
25.16 597.882324
25.18 600.182495
25.20 611.329102
25.22 620.810791
25.24 609.465027
25.26 610.950195
25.28 614.346008
25.30 615.184814
25.32 612.865906
25.34 607.638489
25.36 602.299072
25.38 605.315308
25.40 612.679077
25.42 608.8797
25.44 603.471008
25.46 604.489258
25.48 601.911011
25.50 610.490051
25.52 612.419739
25.54 612.480042
25.56 603.266052
25.58 614.481262
25.60 616.32312
25.62 612.416138
25.64 607.637878
25.66 610.212402
25.68 604.483826
25.70 605.031738
25.72 613.575867
25.74 610.16864
25.76 608.289124
25.78 605.981018
25.80 603.911255
25.82 612.060913
25.84 609.433533
25.86 609.119629
25.88 621.584778
25.90 611.8974
25.92 618.131287
25.94 626.60144
25.96 615.094727
25.98 603.310852
26.00 606.305115
26.02 610.903564
26.04 610.882141
26.06 605.115662
26.08 603.516663
26.10 601.929688
26.12 613.37262
26.14 621.61615
26.16 614.580261
26.18 606.326538
26.20 606.513794
26.22 605.320984
26.24 614.002991
26.26 616.122314
26.28 608.077515
26.30 612.422791
26.32 611.482544
26.34 607.287048
26.36 612.584778
26.38 621.799927
26.40 612.829102
26.42 601.063599
26.44 604.498169
26.46 602.60968
26.48 604.996765
26.50 604.230042
26.52 608.509155
26.54 608.057678
26.56 612.375854
26.58 611.092651
26.60 604.490479
26.62 605.96283
26.64 609.735352
26.66 606.24585
26.68 593.291321
26.70 598.01825
26.72 602.157471
26.74 607.187378
26.76 605.739929
26.78 600.477478
26.80 596.138855
26.82 599.597717
26.84 595.002502
26.86 593.087524
26.88 601.330933
26.90 608.740662
26.92 606.202393
26.94 601.773376
26.96 602.561951
26.98 609.992737
27.00 594.99823
27.02 591.601868
27.04 596.004089
27.06 595.337158
27.08 595.375671
27.10 595.314392
27.12 606.644897
27.14 604.809509
27.16 602.744568
27.18 596.495117
27.20 596.40863
27.22 597.058411
27.24 596.12915
27.26 599.309204
27.28 601.785339
27.30 593.7052
27.32 604.490417
27.34 600.473328
27.36 600.07074
27.38 601.301208
27.40 597.592407
27.42 598.140442
27.44 600.355469
27.46 595.063721
27.48 596.047668
27.50 597.020813
27.52 584.46582
27.54 598.851013
27.56 599.257385
27.58 594.782898
27.60 596.366882
27.62 598.137756
27.64 595.208313
27.66 602.865601
27.68 600.741699
27.70 601.193787
27.72 600.192688
27.74 595.043518
27.76 596.623047
27.78 602.282349
27.80 598.923096
27.82 600.379089
27.84 600.342712
27.86 601.301208
27.88 600.011169
27.90 592.754883
27.92 585.424866
27.94 591.051575
27.96 598.124268
27.98 588.13147
28.00 587.487061
28.02 593.649963
28.04 595.365601
28.06 591.758972
28.08 593.280396
28.10 582.854126
28.12 586.196289
28.14 598.333435
28.16 598.490601
28.18 591.593079
28.20 581.868652
28.22 589.154785
28.24 587.930176
28.26 590.45166
28.28 593.597534
28.30 590.880859
28.32 596.890137
28.34 591.739014
28.36 589.218872
28.38 579.699646
28.40 582.371155
28.42 589.243286
28.44 582.568848
28.46 590.236816
28.48 586.1026
28.50 588.819275
28.52 585.505615
28.54 582.234497
28.56 591.382202
28.58 586.453918
28.60 583.89917
28.62 585.046326
28.64 582.263184
28.66 589.082397
28.68 585.073792
28.70 580.469727
28.72 578.97821
28.74 575.963806
28.76 575.346863
28.78 575.612976
28.80 571.935669
28.82 579.90564
28.84 583.648193
28.86 584.014343
28.88 578.768616
28.90 583.604309
28.92 587.911682
28.94 582.541382
28.96 574.058777
28.98 574.420288
29.00 578.171387
29.02 576.88739
29.04 577.633789
29.06 576.793823
29.08 580.620544
29.10 583.762695
29.12 572.454956
29.14 574.083862
29.16 571.933167
29.18 568.399597
29.20 569.646179
29.22 575.509888
29.24 579.594849
29.26 572.403381
29.28 568.453735
29.30 572.21228
29.32 576.006836
29.34 573.796143
29.36 575.944275
29.38 574.531616
29.40 573.419556
29.42 572.054321
29.44 572.769287
29.46 573.745789
29.48 580.673462
29.50 572.956482
29.52 574.509216
29.54 569.619568
29.56 566.436951
29.58 568.871826
29.60 571.650635
29.62 568.189758
29.64 560.468262
29.66 557.352173
29.68 571.1427
29.70 575.677429
29.72 572.650818
29.74 573.338135
29.76 564.657043
29.78 562.422607
29.80 564.59137
29.82 564.035706
29.84 556.970703
29.86 563.196472
29.88 564.224121
29.90 568.227722
29.92 573.547668
29.94 558.977478
29.96 558.102051
29.98 567.64032
30.00 571.669312
30.02 568.227478
30.04 561.892883
30.06 576.435608
30.08 567.262817
30.10 560.721436
30.12 566.270752
30.14 571.877869
30.16 566.963074
30.18 560.431763
30.20 566.079346
30.22 573.38623
30.24 574.68512
30.26 579.329041
30.28 574.693115
30.30 575.678162
30.32 584.702087
30.34 587.547729
30.36 593.130188
30.38 585.231323
30.40 585.890381
30.42 588.242676
30.44 591.592773
30.46 599.654663
30.48 608.861511
30.50 605.302246
30.52 615.205261
30.54 625.945313
30.56 635.482483
30.58 643.031372
30.60 637.014954
30.62 634.076538
30.64 647.050293
30.66 644.260437
30.68 645.43988
30.70 639.423401
30.72 636.164734
30.74 628.086487
30.76 626.572876
30.78 621.775879
30.80 620.240234
30.82 619.018494
30.84 607.524658
30.86 607.023193
30.88 602.8526
30.90 583.16748
30.92 579.952393
30.94 584.00116
30.96 578.215759
30.98 564.247742
31.00 556.346436
31.02 558.28479
31.04 556.677917
31.06 555.728638
31.08 555.082764
31.10 554.546875
31.12 534.136841
31.14 540.196106
31.16 543.714111
31.18 533.511292
31.20 537.879761
31.22 536.285889
31.24 533.315308
31.26 537.223267
31.28 538.163391
31.30 535.203613
31.32 535.177063
31.34 531.283081
31.36 527.046753
31.38 530.603088
31.40 522.828247
31.42 533.191589
31.44 519.429626
31.46 513.366089
31.48 517.248962
31.50 526.212646
31.52 532.312317
31.54 516.900818
31.56 518.883545
31.58 513.399353
31.60 505.801361
31.62 510.326965
31.64 513.433838
31.66 513.404297
31.68 506.387787
31.70 508.966949
31.72 504.568451
31.74 509.623444
31.76 516.291321
31.78 516.660339
31.80 504.726715
